0
Diameter:	   8.10
   1.00
Area:	  51.5300
GaugeLength:	  50.00
2009-1-1
al envelhecido
001
DataNumber:	2600
index	Load(kN)	Defor(mm)	Stroke(mm)	Time(s)
    0	  0.0000	  0.0000	   0.000	   0.000
    1	  0.0000	  0.0000	   0.000	   0.055
    2	  0.0000	  0.0000	   0.000	   0.115
    3	  0.0000	  0.0000	   0.000	   0.175
    4	  0.0000	  0.0000	   0.004	   0.235
    5	  0.0400	  0.0000	   0.009	   0.295
    6	  0.0600	  0.0020	   0.014	   0.355
    7	  0.1000	  0.0020	   0.019	   0.415
    8	  0.1400	  0.0020	   0.024	   0.475
    9	  0.1600	  0.0040	   0.029	   0.535
   10	  0.1600	  0.0040	   0.034	   0.595
   11	  0.1600	  0.0040	   0.039	   0.655
   12	  0.1800	  0.0040	   0.044	   0.715
   13	  0.1800	  0.0040	   0.049	   0.775
   14	  0.1800	  0.0040	   0.054	   0.835
   15	  0.1800	  0.0060	   0.059	   0.895
   16	  0.1800	  0.0040	   0.064	   0.955
   17	  0.1800	  0.0060	   0.069	   1.015
   18	  0.1800	  0.0040	   0.074	   1.075
   19	  0.1800	  0.0060	   0.079	   1.135
   20	  0.2000	  0.0060	   0.084	   1.195
   21	  0.2200	  0.0060	   0.089	   1.255
   22	  0.2600	  0.0060	   0.094	   1.315
   23	  0.3000	  0.0060	   0.099	   1.375
   24	  0.3200	  0.0060	   0.104	   1.435
   25	  0.3600	  0.0080	   0.109	   1.495
   26	  0.4000	  0.0080	   0.114	   1.555
   27	  0.4600	  0.0080	   0.119	   1.615
   28	  0.5000	  0.0100	   0.124	   1.675
   29	  0.5600	  0.0100	   0.129	   1.735
   30	  0.6000	  0.0100	   0.134	   1.795
   31	  0.6600	  0.0120	   0.139	   1.855
   32	  0.7200	  0.0120	   0.144	   1.915
   33	  0.7600	  0.0120	   0.149	   1.975
   34	  0.8000	  0.0140	   0.154	   2.035
   35	  0.8400	  0.0140	   0.159	   2.095
   36	  0.8800	  0.0140	   0.164	   2.155
   37	  0.9200	  0.0140	   0.169	   2.215
   38	  0.9400	  0.0160	   0.174	   2.275
   39	  0.9800	  0.0160	   0.179	   2.335
   40	  1.0200	  0.0160	   0.184	   2.395
   41	  1.0600	  0.0180	   0.189	   2.455
   42	  1.1000	  0.0180	   0.194	   2.515
   43	  1.1400	  0.0180	   0.199	   2.575
   44	  1.1800	  0.0200	   0.204	   2.635
   45	  1.2200	  0.0200	   0.209	   2.695
   46	  1.2600	  0.0200	   0.214	   2.755
   47	  1.3000	  0.0200	   0.219	   2.815
   48	  1.3400	  0.0200	   0.224	   2.875
   49	  1.3800	  0.0220	   0.229	   2.935
   50	  1.4000	  0.0220	   0.234	   2.995
   51	  1.4400	  0.0220	   0.239	   3.055
   52	  1.4800	  0.0220	   0.244	   3.115
   53	  1.5200	  0.0240	   0.249	   3.175
   54	  1.5600	  0.0240	   0.254	   3.235
   55	  1.6000	  0.0240	   0.259	   3.295
   56	  1.6200	  0.0240	   0.264	   3.355
   57	  1.6600	  0.0240	   0.269	   3.415
   58	  1.7000	  0.0260	   0.274	   3.475
   59	  1.7200	  0.0260	   0.279	   3.535
   60	  1.7600	  0.0260	   0.282	   3.595
   61	  1.7800	  0.0260	   0.289	   3.655
   62	  1.8200	  0.0280	   0.294	   3.715
   63	  1.8600	  0.0280	   0.299	   3.775
   64	  1.8800	  0.0280	   0.304	   3.835
   65	  1.9000	  0.0280	   0.309	   3.895
   66	  1.9400	  0.0280	   0.314	   3.955
   67	  1.9600	  0.0280	   0.319	   4.015
   68	  2.0000	  0.0300	   0.324	   4.075
   69	  2.0200	  0.0300	   0.329	   4.135
   70	  2.0400	  0.0300	   0.332	   4.195
   71	  2.0800	  0.0300	   0.338	   4.255
   72	  2.1000	  0.0300	   0.343	   4.315
   73	  2.1200	  0.0300	   0.347	   4.375
   74	  2.1400	  0.0320	   0.352	   4.435
   75	  2.1800	  0.0300	   0.357	   4.495
   76	  2.2000	  0.0320	   0.362	   4.555
   77	  2.2200	  0.0320	   0.367	   4.615
   78	  2.2400	  0.0320	   0.373	   4.675
   79	  2.2800	  0.0320	   0.377	   4.735
   80	  2.3000	  0.0320	   0.382	   4.795
   81	  2.3200	  0.0320	   0.387	   4.855
   82	  2.3400	  0.0340	   0.392	   4.915
   83	  2.3800	  0.0340	   0.397	   4.975
   84	  2.4000	  0.0340	   0.403	   5.035
   85	  2.4200	  0.0340	   0.407	   5.095
   86	  2.4400	  0.0340	   0.412	   5.155
   87	  2.4800	  0.0340	   0.417	   5.215
   88	  2.5000	  0.0340	   0.422	   5.275
   89	  2.5200	  0.0340	   0.427	   5.335
   90	  2.5400	  0.0340	   0.433	   5.395
   91	  2.5600	  0.0340	   0.438	   5.455
   92	  2.5800	  0.0340	   0.442	   5.515
   93	  2.6000	  0.0340	   0.447	   5.575
   94	  2.6200	  0.0340	   0.452	   5.635
   95	  2.6600	  0.0340	   0.457	   5.695
   96	  2.6800	  0.0340	   0.462	   5.755
   97	  2.7000	  0.0340	   0.468	   5.815
   98	  2.7200	  0.0340	   0.472	   5.875
   99	  2.7400	  0.0340	   0.477	   5.935
  100	  2.7600	  0.0340	   0.482	   5.995
  101	  2.7800	  0.0340	   0.487	   6.055
  102	  2.8000	  0.0340	   0.492	   6.115
  103	  2.8200	  0.0340	   0.498	   6.175
  104	  2.8600	  0.0340	   0.502	   6.235
  105	  2.8800	  0.0340	   0.507	   6.295
  106	  2.9000	  0.0340	   0.512	   6.355
  107	  2.9200	  0.0340	   0.517	   6.415
  108	  2.9400	  0.0340	   0.522	   6.475
  109	  2.9600	  0.0360	   0.527	   6.535
  110	  2.9800	  0.0340	   0.532	   6.595
  111	  3.0000	  0.0360	   0.537	   6.655
  112	  3.0200	  0.0360	   0.542	   6.715
  113	  3.0400	  0.0360	   0.548	   6.775
  114	  3.0600	  0.0360	   0.553	   6.835
  115	  3.1000	  0.0360	   0.558	   6.895
  116	  3.1000	  0.0360	   0.562	   6.955
  117	  3.1200	  0.0360	   0.567	   7.015
  118	  3.1400	  0.0360	   0.572	   7.075
  119	  3.1600	  0.0360	   0.577	   7.135
  120	  3.1800	  0.0360	   0.582	   7.195
  121	  3.2000	  0.0380	   0.587	   7.255
  122	  3.2200	  0.0380	   0.592	   7.315
  123	  3.2600	  0.0380	   0.597	   7.375
  124	  3.2600	  0.0380	   0.602	   7.435
  125	  3.2800	  0.0380	   0.607	   7.495
  126	  3.3000	  0.0380	   0.613	   7.555
  127	  3.3200	  0.0380	   0.618	   7.615
  128	  3.3400	  0.0380	   0.623	   7.675
  129	  3.3600	  0.0380	   0.627	   7.735
  130	  3.3800	  0.0380	   0.632	   7.795
  131	  3.4000	  0.0400	   0.637	   7.855
  132	  3.4200	  0.0380	   0.642	   7.915
  133	  3.4400	  0.0400	   0.647	   7.975
  134	  3.4600	  0.0400	   0.652	   8.035
  135	  3.4800	  0.0400	   0.657	   8.095
  136	  3.4800	  0.0400	   0.662	   8.155
  137	  3.5000	  0.0400	   0.667	   8.215
  138	  3.5200	  0.0400	   0.673	   8.275
  139	  3.5400	  0.0400	   0.678	   8.335
  140	  3.5600	  0.0400	   0.683	   8.395
  141	  3.5800	  0.0400	   0.686	   8.455
  142	  3.6000	  0.0400	   0.692	   8.515
  143	  3.6200	  0.0420	   0.696	   8.575
  144	  3.6400	  0.0420	   0.701	   8.635
  145	  3.6600	  0.0420	   0.706	   8.695
  146	  3.6800	  0.0420	   0.711	   8.755
  147	  3.7000	  0.0420	   0.716	   8.815
  148	  3.7200	  0.0420	   0.721	   8.875
  149	  3.7400	  0.0420	   0.726	   8.935
  150	  3.7600	  0.0420	   0.731	   8.995
  151	  3.7800	  0.0420	   0.736	   9.055
  152	  3.8000	  0.0420	   0.741	   9.115
  153	  3.8200	  0.0420	   0.746	   9.175
  154	  3.8200	  0.0420	   0.751	   9.235
  155	  3.8400	  0.0440	   0.756	   9.295
  156	  3.8600	  0.0420	   0.761	   9.355
  157	  3.8800	  0.0420	   0.766	   9.415
  158	  3.9000	  0.0440	   0.771	   9.475
  159	  3.9200	  0.0440	   0.776	   9.535
  160	  3.9400	  0.0440	   0.781	   9.595
  161	  3.9600	  0.0440	   0.786	   9.655
  162	  3.9800	  0.0440	   0.791	   9.715
  163	  4.0000	  0.0440	   0.796	   9.775
  164	  4.0200	  0.0440	   0.801	   9.835
  165	  4.0400	  0.0440	   0.806	   9.895
  166	  4.0600	  0.0440	   0.811	   9.955
  167	  4.0800	  0.0440	   0.816	  10.015
  168	  4.1000	  0.0460	   0.821	  10.075
  169	  4.1200	  0.0460	   0.826	  10.135
  170	  4.1400	  0.0460	   0.831	  10.195
  171	  4.1600	  0.0460	   0.836	  10.255
  172	  4.1800	  0.0460	   0.841	  10.315
  173	  4.2000	  0.0460	   0.846	  10.375
  174	  4.2200	  0.0460	   0.851	  10.435
  175	  4.2400	  0.0460	   0.856	  10.495
  176	  4.2600	  0.0460	   0.861	  10.555
  177	  4.2800	  0.0480	   0.866	  10.615
  178	  4.3000	  0.0480	   0.871	  10.675
  179	  4.3200	  0.0480	   0.876	  10.735
  180	  4.3400	  0.0480	   0.881	  10.795
  181	  4.3600	  0.0480	   0.886	  10.855
  182	  4.3800	  0.0480	   0.891	  10.915
  183	  4.4000	  0.0480	   0.896	  10.975
  184	  4.4200	  0.0480	   0.901	  11.035
  185	  4.4400	  0.0480	   0.906	  11.095
  186	  4.4600	  0.0480	   0.911	  11.155
  187	  4.4800	  0.0500	   0.916	  11.215
  188	  4.5000	  0.0480	   0.921	  11.275
  189	  4.5000	  0.0500	   0.926	  11.335
  190	  4.5200	  0.0500	   0.931	  11.395
  191	  4.5400	  0.0480	   0.936	  11.455
  192	  4.5600	  0.0500	   0.941	  11.515
  193	  4.5800	  0.0500	   0.946	  11.575
  194	  4.6000	  0.0500	   0.951	  11.635
  195	  4.6200	  0.0500	   0.956	  11.695
  196	  4.6400	  0.0500	   0.961	  11.755
  197	  4.6600	  0.0500	   0.966	  11.815
  198	  4.6800	  0.0500	   0.971	  11.875
  199	  4.7000	  0.0520	   0.976	  11.935
  200	  4.7200	  0.0520	   0.981	  11.995
  201	  4.7400	  0.0520	   0.986	  12.055
  202	  4.7600	  0.0520	   0.991	  12.115
  203	  4.7800	  0.0520	   0.996	  12.175
  204	  4.8000	  0.0520	   1.001	  12.235
  205	  4.8200	  0.0520	   1.006	  12.295
  206	  4.8200	  0.0520	   1.011	  12.355
  207	  4.8400	  0.0540	   1.016	  12.415
  208	  4.8600	  0.0540	   1.021	  12.475
  209	  4.8800	  0.0540	   1.026	  12.535
  210	  4.9000	  0.0540	   1.031	  12.595
  211	  4.9200	  0.0560	   1.036	  12.655
  212	  4.9400	  0.0540	   1.041	  12.715
  213	  4.9600	  0.0540	   1.046	  12.775
  214	  4.9800	  0.0560	   1.051	  12.835
  215	  5.0000	  0.0560	   1.056	  12.895
  216	  5.0200	  0.0560	   1.061	  12.955
  217	  5.0400	  0.0560	   1.066	  13.015
  218	  5.0600	  0.0560	   1.071	  13.075
  219	  5.0800	  0.0580	   1.076	  13.135
  220	  5.1000	  0.0560	   1.081	  13.195
  221	  5.1200	  0.0580	   1.086	  13.255
  222	  5.1400	  0.0580	   1.091	  13.315
  223	  5.1600	  0.0580	   1.096	  13.375
  224	  5.1800	  0.0580	   1.101	  13.435
  225	  5.2000	  0.0580	   1.106	  13.495
  226	  5.2200	  0.0580	   1.111	  13.555
  227	  5.2400	  0.0580	   1.116	  13.615
  228	  5.2600	  0.0580	   1.121	  13.675
  229	  5.2800	  0.0600	   1.126	  13.735
  230	  5.3000	  0.0600	   1.131	  13.795
  231	  5.3200	  0.0600	   1.136	  13.855
  232	  5.3400	  0.0600	   1.141	  13.915
  233	  5.3600	  0.0600	   1.146	  13.975
  234	  5.3800	  0.0600	   1.151	  14.035
  235	  5.4000	  0.0600	   1.156	  14.095
  236	  5.4200	  0.0600	   1.161	  14.155
  237	  5.4400	  0.0620	   1.166	  14.215
  238	  5.4600	  0.0620	   1.171	  14.275
  239	  5.4800	  0.0620	   1.176	  14.335
  240	  5.5000	  0.0620	   1.181	  14.395
  241	  5.5200	  0.0620	   1.186	  14.455
  242	  5.5400	  0.0620	   1.191	  14.515
  243	  5.5600	  0.0640	   1.196	  14.575
  244	  5.5800	  0.0640	   1.201	  14.635
  245	  5.6000	  0.0640	   1.206	  14.695
  246	  5.6200	  0.0640	   1.211	  14.755
  247	  5.6400	  0.0640	   1.216	  14.815
  248	  5.6600	  0.0640	   1.221	  14.875
  249	  5.6800	  0.0640	   1.226	  14.935
  250	  5.7200	  0.0640	   1.231	  14.995
  251	  5.7400	  0.0660	   1.236	  15.055
  252	  5.7600	  0.0660	   1.241	  15.115
  253	  5.7800	  0.0660	   1.246	  15.175
  254	  5.8000	  0.0660	   1.251	  15.235
  255	  5.8200	  0.0660	   1.256	  15.295
  256	  5.8400	  0.0660	   1.262	  15.355
  257	  5.8600	  0.0660	   1.266	  15.415
  258	  5.8800	  0.0680	   1.272	  15.475
  259	  5.9000	  0.0660	   1.277	  15.535
  260	  5.9200	  0.0680	   1.283	  15.595
  261	  5.9400	  0.0680	   1.288	  15.655
  262	  5.9600	  0.0680	   1.293	  15.715
  263	  5.9800	  0.0680	   1.298	  15.775
  264	  6.0000	  0.0680	   1.303	  15.835
  265	  6.0200	  0.0680	   1.308	  15.895
  266	  6.0400	  0.0700	   1.312	  15.955
  267	  6.0600	  0.0700	   1.317	  16.015
  268	  6.1000	  0.0700	   1.322	  16.075
  269	  6.1200	  0.0700	   1.327	  16.135
  270	  6.1400	  0.0700	   1.332	  16.195
  271	  6.1600	  0.0700	   1.337	  16.255
  272	  6.1800	  0.0720	   1.342	  16.315
  273	  6.2000	  0.0720	   1.346	  16.375
  274	  6.2200	  0.0720	   1.352	  16.435
  275	  6.2400	  0.0720	   1.357	  16.495
  276	  6.2600	  0.0720	   1.362	  16.555
  277	  6.2800	  0.0720	   1.367	  16.615
  278	  6.3000	  0.0740	   1.372	  16.675
  279	  6.3200	  0.0740	   1.377	  16.735
  280	  6.3400	  0.0740	   1.382	  16.795
  281	  6.3600	  0.0740	   1.387	  16.855
  282	  6.4000	  0.0740	   1.392	  16.915
  283	  6.4200	  0.0740	   1.397	  16.975
  284	  6.4400	  0.0740	   1.402	  17.035
  285	  6.4600	  0.0740	   1.407	  17.095
  286	  6.4800	  0.0760	   1.413	  17.155
  287	  6.5000	  0.0760	   1.418	  17.215
  288	  6.5200	  0.0760	   1.423	  17.275
  289	  6.5400	  0.0760	   1.428	  17.335
  290	  6.5600	  0.0760	   1.433	  17.395
  291	  6.5800	  0.0760	   1.438	  17.455
  292	  6.6000	  0.0760	   1.442	  17.515
  293	  6.6200	  0.0780	   1.447	  17.575
  294	  6.6400	  0.0760	   1.452	  17.635
  295	  6.6800	  0.0780	   1.457	  17.695
  296	  6.7000	  0.0780	   1.462	  17.755
  297	  6.7200	  0.0780	   1.467	  17.815
  298	  6.7400	  0.0780	   1.472	  17.875
  299	  6.7600	  0.0780	   1.477	  17.935
  300	  6.7800	  0.0800	   1.482	  17.995
  301	  6.8000	  0.0800	   1.487	  18.055
  302	  6.8200	  0.0800	   1.492	  18.115
  303	  6.8400	  0.0800	   1.497	  18.175
  304	  6.8600	  0.0800	   1.502	  18.235
  305	  6.9000	  0.0800	   1.507	  18.295
  306	  6.9200	  0.0800	   1.512	  18.355
  307	  6.9400	  0.0800	   1.517	  18.415
  308	  6.9600	  0.0820	   1.522	  18.475
  309	  6.9800	  0.0820	   1.527	  18.535
  310	  7.0000	  0.0820	   1.532	  18.595
  311	  7.0200	  0.0820	   1.538	  18.655
  312	  7.0400	  0.0820	   1.543	  18.715
  313	  7.0600	  0.0820	   1.548	  18.775
  314	  7.0800	  0.0820	   1.553	  18.835
  315	  7.1200	  0.0840	   1.558	  18.895
  316	  7.1400	  0.0840	   1.562	  18.955
  317	  7.1600	  0.0840	   1.567	  19.015
  318	  7.1800	  0.0840	   1.572	  19.075
  319	  7.2000	  0.0840	   1.577	  19.135
  320	  7.2200	  0.0840	   1.582	  19.195
  321	  7.2400	  0.0860	   1.587	  19.255
  322	  7.2600	  0.0860	   1.592	  19.315
  323	  7.3000	  0.0860	   1.597	  19.375
  324	  7.3200	  0.0860	   1.602	  19.435
  325	  7.3400	  0.0860	   1.607	  19.495
  326	  7.3600	  0.0860	   1.612	  19.555
  327	  7.3800	  0.0860	   1.617	  19.615
  328	  7.4000	  0.0880	   1.622	  19.675
  329	  7.4200	  0.0880	   1.627	  19.735
  330	  7.4400	  0.0880	   1.632	  19.795
  331	  7.4800	  0.0880	   1.637	  19.855
  332	  7.4800	  0.0880	   1.642	  19.915
  333	  7.5200	  0.0880	   1.647	  19.975
  334	  7.5400	  0.0900	   1.652	  20.035
  335	  7.5600	  0.0900	   1.657	  20.095
  336	  7.5800	  0.0900	   1.662	  20.155
  337	  7.6000	  0.0900	   1.668	  20.215
  338	  7.6200	  0.0900	   1.673	  20.275
  339	  7.6400	  0.0900	   1.678	  20.335
  340	  7.6800	  0.0900	   1.683	  20.395
  341	  7.7000	  0.0900	   1.688	  20.455
  342	  7.7200	  0.0920	   1.692	  20.515
  343	  7.7400	  0.0920	   1.697	  20.575
  344	  7.7600	  0.0920	   1.702	  20.635
  345	  7.7800	  0.0920	   1.707	  20.695
  346	  7.8000	  0.0920	   1.712	  20.755
  347	  7.8200	  0.0920	   1.717	  20.815
  348	  7.8400	  0.0920	   1.722	  20.875
  349	  7.8800	  0.0940	   1.727	  20.935
  350	  7.9000	  0.0940	   1.732	  20.995
  351	  7.9200	  0.0940	   1.737	  21.055
  352	  7.9400	  0.0960	   1.742	  21.115
  353	  7.9600	  0.0940	   1.747	  21.175
  354	  7.9800	  0.0960	   1.752	  21.235
  355	  8.0000	  0.0960	   1.757	  21.295
  356	  8.0200	  0.0960	   1.762	  21.355
  357	  8.0600	  0.0960	   1.767	  21.415
  358	  8.0800	  0.0960	   1.772	  21.475
  359	  8.1000	  0.0980	   1.777	  21.535
  360	  8.1200	  0.0960	   1.782	  21.595
  361	  8.1400	  0.0980	   1.787	  21.655
  362	  8.1600	  0.0980	   1.793	  21.715
  363	  8.1800	  0.0980	   1.798	  21.775
  364	  8.2000	  0.0980	   1.803	  21.835
  365	  8.2200	  0.1000	   1.808	  21.895
  366	  8.2600	  0.0980	   1.812	  21.955
  367	  8.2800	  0.0980	   1.817	  22.015
  368	  8.3000	  0.1000	   1.822	  22.075
  369	  8.3200	  0.1000	   1.827	  22.135
  370	  8.3400	  0.1000	   1.832	  22.195
  371	  8.3600	  0.1000	   1.837	  22.255
  372	  8.3800	  0.1000	   1.842	  22.315
  373	  8.4000	  0.1020	   1.847	  22.375
  374	  8.4400	  0.1020	   1.852	  22.435
  375	  8.4600	  0.1020	   1.857	  22.495
  376	  8.4800	  0.1020	   1.862	  22.555
  377	  8.5000	  0.1020	   1.867	  22.615
  378	  8.5200	  0.1020	   1.872	  22.675
  379	  8.5400	  0.1020	   1.877	  22.735
  380	  8.5400	  0.1020	   1.879	  22.795
  381	  8.5800	  0.1040	   1.884	  22.855
  382	  8.6000	  0.1040	   1.889	  22.915
  383	  8.6400	  0.1040	   1.894	  22.975
  384	  8.6600	  0.1040	   1.899	  23.035
  385	  8.6800	  0.1040	   1.904	  23.095
  386	  8.7000	  0.1040	   1.909	  23.155
  387	  8.7200	  0.1060	   1.914	  23.215
  388	  8.7400	  0.1060	   1.919	  23.275
  389	  8.7600	  0.1060	   1.924	  23.335
  390	  8.7800	  0.1060	   1.929	  23.395
  391	  8.8200	  0.1060	   1.934	  23.455
  392	  8.8400	  0.1060	   1.939	  23.515
  393	  8.8600	  0.1080	   1.944	  23.575
  394	  8.8800	  0.1080	   1.949	  23.635
  395	  8.9000	  0.1080	   1.954	  23.695
  396	  8.9200	  0.1080	   1.959	  23.755
  397	  8.9400	  0.1080	   1.964	  23.815
  398	  8.9800	  0.1080	   1.969	  23.875
  399	  9.0000	  0.1080	   1.974	  23.935
  400	  9.0200	  0.1100	   1.979	  23.995
  401	  9.0400	  0.1100	   1.984	  24.055
  402	  9.0600	  0.1100	   1.990	  24.115
  403	  9.0800	  0.1100	   1.994	  24.175
  404	  9.1200	  0.1100	   2.000	  24.235
  405	  9.1400	  0.1120	   2.004	  24.295
  406	  9.1600	  0.1120	   2.010	  24.355
  407	  9.1800	  0.1120	   2.014	  24.415
  408	  9.2000	  0.1120	   2.020	  24.475
  409	  9.2400	  0.1120	   2.024	  24.535
  410	  9.2600	  0.1120	   2.030	  24.595
  411	  9.2800	  0.1120	   2.034	  24.655
  412	  9.3000	  0.1140	   2.040	  24.715
  413	  9.3200	  0.1140	   2.044	  24.775
  414	  9.3400	  0.1140	   2.050	  24.835
  415	  9.3600	  0.1140	   2.054	  24.895
  416	  9.4000	  0.1140	   2.060	  24.955
  417	  9.4200	  0.1140	   2.064	  25.015
  418	  9.4400	  0.1160	   2.070	  25.075
  419	  9.4600	  0.1160	   2.074	  25.135
  420	  9.4800	  0.1160	   2.080	  25.195
  421	  9.5200	  0.1160	   2.085	  25.255
  422	  9.5400	  0.1160	   2.090	  25.315
  423	  9.5600	  0.1160	   2.095	  25.375
  424	  9.5800	  0.1180	   2.100	  25.435
  425	  9.6000	  0.1160	   2.105	  25.495
  426	  9.6200	  0.1180	   2.110	  25.555
  427	  9.6600	  0.1180	   2.115	  25.615
  428	  9.6800	  0.1180	   2.120	  25.675
  429	  9.7000	  0.1180	   2.125	  25.735
  430	  9.7200	  0.1180	   2.130	  25.795
  431	  9.7400	  0.1200	   2.135	  25.855
  432	  9.7600	  0.1200	   2.140	  25.915
  433	  9.8000	  0.1200	   2.145	  25.975
  434	  9.8200	  0.1200	   2.150	  26.035
  435	  9.8400	  0.1200	   2.155	  26.095
  436	  9.8600	  0.1220	   2.160	  26.155
  437	  9.8800	  0.1220	   2.165	  26.215
  438	  9.9200	  0.1220	   2.170	  26.275
  439	  9.9400	  0.1220	   2.175	  26.335
  440	  9.9600	  0.1220	   2.180	  26.395
  441	  9.9800	  0.1220	   2.185	  26.455
  442	 10.0000	  0.1240	   2.190	  26.515
  443	 10.0200	  0.1240	   2.195	  26.575
  444	 10.0600	  0.1240	   2.200	  26.635
  445	 10.0800	  0.1240	   2.205	  26.695
  446	 10.1000	  0.1240	   2.210	  26.755
  447	 10.1200	  0.1240	   2.215	  26.815
  448	 10.1400	  0.1260	   2.220	  26.875
  449	 10.1600	  0.1260	   2.225	  26.935
  450	 10.1800	  0.1260	   2.230	  26.995
  451	 10.2200	  0.1260	   2.235	  27.055
  452	 10.2400	  0.1260	   2.240	  27.115
  453	 10.2600	  0.1260	   2.245	  27.175
  454	 10.2800	  0.1280	   2.250	  27.235
  455	 10.3000	  0.1280	   2.255	  27.295
  456	 10.3400	  0.1280	   2.260	  27.355
  457	 10.3600	  0.1280	   2.265	  27.415
  458	 10.3800	  0.1280	   2.270	  27.475
  459	 10.4000	  0.1280	   2.275	  27.535
  460	 10.4400	  0.1280	   2.280	  27.595
  461	 10.4600	  0.1300	   2.285	  27.655
  462	 10.4800	  0.1300	   2.290	  27.715
  463	 10.5000	  0.1300	   2.295	  27.775
  464	 10.5200	  0.1300	   2.300	  27.835
  465	 10.5600	  0.1320	   2.305	  27.895
  466	 10.5800	  0.1300	   2.310	  27.955
  467	 10.6000	  0.1320	   2.315	  28.015
  468	 10.6200	  0.1320	   2.320	  28.075
  469	 10.6600	  0.1320	   2.325	  28.135
  470	 10.6800	  0.1320	   2.330	  28.195
  471	 10.7000	  0.1320	   2.335	  28.255
  472	 10.7200	  0.1320	   2.340	  28.315
  473	 10.7400	  0.1340	   2.345	  28.375
  474	 10.7600	  0.1340	   2.350	  28.435
  475	 10.8000	  0.1340	   2.355	  28.495
  476	 10.8200	  0.1340	   2.361	  28.555
  477	 10.8400	  0.1340	   2.365	  28.615
  478	 10.8600	  0.1360	   2.370	  28.675
  479	 10.9000	  0.1360	   2.375	  28.735
  480	 10.9200	  0.1360	   2.380	  28.795
  481	 10.9400	  0.1360	   2.385	  28.855
  482	 10.9600	  0.1360	   2.390	  28.915
  483	 11.0000	  0.1360	   2.395	  28.975
  484	 11.0200	  0.1380	   2.400	  29.035
  485	 11.0400	  0.1380	   2.405	  29.095
  486	 11.0600	  0.1380	   2.410	  29.155
  487	 11.0800	  0.1380	   2.415	  29.215
  488	 11.1200	  0.1380	   2.420	  29.275
  489	 11.1400	  0.1400	   2.425	  29.335
  490	 11.1600	  0.1400	   2.430	  29.395
  491	 11.1800	  0.1400	   2.435	  29.455
  492	 11.2200	  0.1400	   2.440	  29.515
  493	 11.2400	  0.1400	   2.445	  29.575
  494	 11.2600	  0.1400	   2.450	  29.635
  495	 11.2800	  0.1400	   2.455	  29.695
  496	 11.3000	  0.1420	   2.460	  29.755
  497	 11.3400	  0.1420	   2.466	  29.815
  498	 11.3600	  0.1420	   2.471	  29.875
  499	 11.3800	  0.1420	   2.476	  29.935
  500	 11.4000	  0.1440	   2.481	  29.995
  501	 11.4400	  0.1440	   2.486	  30.055
  502	 11.4600	  0.1440	   2.491	  30.115
  503	 11.4800	  0.1440	   2.496	  30.175
  504	 11.5000	  0.1440	   2.501	  30.235
  505	 11.5400	  0.1440	   2.506	  30.295
  506	 11.5600	  0.1460	   2.511	  30.355
  507	 11.5800	  0.1460	   2.516	  30.415
  508	 11.6000	  0.1460	   2.521	  30.475
  509	 11.6200	  0.1460	   2.526	  30.535
  510	 11.6600	  0.1460	   2.531	  30.595
  511	 11.6800	  0.1460	   2.536	  30.655
  512	 11.7000	  0.1480	   2.541	  30.715
  513	 11.7200	  0.1480	   2.546	  30.775
  514	 11.7600	  0.1480	   2.551	  30.835
  515	 11.7800	  0.1480	   2.556	  30.895
  516	 11.8000	  0.1480	   2.561	  30.955
  517	 11.8200	  0.1500	   2.566	  31.015
  518	 11.8400	  0.1500	   2.571	  31.075
  519	 11.8600	  0.1500	   2.576	  31.135
  520	 11.9000	  0.1500	   2.581	  31.195
  521	 11.9200	  0.1500	   2.586	  31.255
  522	 11.9400	  0.1520	   2.591	  31.315
  523	 11.9600	  0.1520	   2.596	  31.375
  524	 12.0000	  0.1520	   2.601	  31.435
  525	 12.0200	  0.1520	   2.606	  31.495
  526	 12.0400	  0.1520	   2.611	  31.555
  527	 12.0600	  0.1520	   2.616	  31.615
  528	 12.1000	  0.1540	   2.621	  31.675
  529	 12.1200	  0.1540	   2.626	  31.735
  530	 12.1400	  0.1540	   2.631	  31.795
  531	 12.1600	  0.1540	   2.636	  31.855
  532	 12.2000	  0.1540	   2.641	  31.915
  533	 12.2200	  0.1540	   2.646	  31.975
  534	 12.2400	  0.1560	   2.651	  32.035
  535	 12.2600	  0.1560	   2.656	  32.095
  536	 12.3000	  0.1560	   2.661	  32.155
  537	 12.3200	  0.1560	   2.666	  32.215
  538	 12.3400	  0.1560	   2.671	  32.275
  539	 12.3600	  0.1580	   2.676	  32.335
  540	 12.4000	  0.1580	   2.681	  32.395
  541	 12.4200	  0.1580	   2.686	  32.455
  542	 12.4400	  0.1580	   2.691	  32.515
  543	 12.4600	  0.1600	   2.696	  32.575
  544	 12.4800	  0.1600	   2.701	  32.635
  545	 12.5200	  0.1600	   2.706	  32.695
  546	 12.5400	  0.1600	   2.711	  32.755
  547	 12.5600	  0.1600	   2.716	  32.815
  548	 12.5800	  0.1620	   2.721	  32.875
  549	 12.6200	  0.1620	   2.726	  32.935
  550	 12.6400	  0.1620	   2.731	  32.995
  551	 12.6600	  0.1620	   2.736	  33.055
  552	 12.6800	  0.1620	   2.741	  33.115
  553	 12.7000	  0.1620	   2.746	  33.175
  554	 12.7400	  0.1620	   2.751	  33.235
  555	 12.7600	  0.1640	   2.756	  33.295
  556	 12.7800	  0.1640	   2.761	  33.355
  557	 12.8000	  0.1640	   2.766	  33.415
  558	 12.8400	  0.1640	   2.771	  33.475
  559	 12.8600	  0.1640	   2.776	  33.535
  560	 12.8800	  0.1660	   2.781	  33.595
  561	 12.9000	  0.1660	   2.786	  33.655
  562	 12.9400	  0.1660	   2.791	  33.715
  563	 12.9600	  0.1660	   2.796	  33.775
  564	 12.9800	  0.1680	   2.801	  33.835
  565	 13.0000	  0.1680	   2.806	  33.895
  566	 13.0400	  0.1680	   2.812	  33.955
  567	 13.0600	  0.1680	   2.817	  34.015
  568	 13.0800	  0.1700	   2.822	  34.075
  569	 13.1000	  0.1700	   2.826	  34.135
  570	 13.1200	  0.1700	   2.832	  34.195
  571	 13.1600	  0.1700	   2.837	  34.255
  572	 13.1800	  0.1700	   2.842	  34.315
  573	 13.2000	  0.1720	   2.847	  34.375
  574	 13.2200	  0.1720	   2.852	  34.435
  575	 13.2600	  0.1720	   2.857	  34.495
  576	 13.2800	  0.1720	   2.862	  34.555
  577	 13.3000	  0.1720	   2.867	  34.615
  578	 13.3200	  0.1740	   2.872	  34.675
  579	 13.3400	  0.1740	   2.877	  34.735
  580	 13.3800	  0.1740	   2.882	  34.795
  581	 13.4000	  0.1740	   2.888	  34.855
  582	 13.4200	  0.1760	   2.892	  34.915
  583	 13.4400	  0.1760	   2.898	  34.975
  584	 13.4800	  0.1760	   2.902	  35.035
  585	 13.5000	  0.1760	   2.908	  35.095
  586	 13.5200	  0.1760	   2.912	  35.155
  587	 13.5400	  0.1760	   2.918	  35.215
  588	 13.5600	  0.1780	   2.922	  35.275
  589	 13.6000	  0.1780	   2.928	  35.335
  590	 13.6200	  0.1780	   2.932	  35.395
  591	 13.6200	  0.1800	   2.938	  35.455
  592	 13.6600	  0.1800	   2.942	  35.515
  593	 13.6800	  0.1800	   2.947	  35.575
  594	 13.7000	  0.1800	   2.952	  35.635
  595	 13.7400	  0.1800	   2.957	  35.695
  596	 13.7600	  0.1820	   2.962	  35.755
  597	 13.7800	  0.1820	   2.967	  35.815
  598	 13.8000	  0.1820	   2.972	  35.875
  599	 13.8200	  0.1840	   2.977	  35.935
  600	 13.8600	  0.1840	   2.982	  35.995
  601	 13.8800	  0.1840	   2.987	  36.055
  602	 13.9000	  0.1860	   2.992	  36.115
  603	 13.9200	  0.1840	   2.997	  36.175
  604	 13.9400	  0.1860	   3.002	  36.235
  605	 13.9800	  0.1860	   3.007	  36.295
  606	 14.0000	  0.1860	   3.013	  36.355
  607	 14.0200	  0.1880	   3.017	  36.415
  608	 14.0400	  0.1880	   3.023	  36.475
  609	 14.0800	  0.1880	   3.027	  36.535
  610	 14.1000	  0.1880	   3.033	  36.595
  611	 14.1200	  0.1900	   3.037	  36.655
  612	 14.1400	  0.1900	   3.043	  36.715
  613	 14.1600	  0.1900	   3.047	  36.775
  614	 14.1800	  0.1900	   3.053	  36.835
  615	 14.2200	  0.1920	   3.057	  36.895
  616	 14.2400	  0.1920	   3.062	  36.955
  617	 14.2600	  0.1920	   3.067	  37.015
  618	 14.2800	  0.1940	   3.072	  37.075
  619	 14.3000	  0.1940	   3.077	  37.135
  620	 14.3400	  0.1940	   3.082	  37.195
  621	 14.3600	  0.1940	   3.087	  37.255
  622	 14.3800	  0.1960	   3.092	  37.315
  623	 14.4000	  0.1960	   3.097	  37.375
  624	 14.4400	  0.1960	   3.102	  37.435
  625	 14.4600	  0.1960	   3.107	  37.495
  626	 14.4800	  0.1960	   3.112	  37.555
  627	 14.5000	  0.1960	   3.117	  37.615
  628	 14.5200	  0.1960	   3.122	  37.675
  629	 14.5600	  0.1980	   3.127	  37.735
  630	 14.5800	  0.1980	   3.132	  37.795
  631	 14.6000	  0.1980	   3.138	  37.855
  632	 14.6200	  0.2000	   3.142	  37.915
  633	 14.6400	  0.2000	   3.148	  37.975
  634	 14.6800	  0.2000	   3.152	  38.035
  635	 14.7000	  0.2020	   3.158	  38.095
  636	 14.7200	  0.2020	   3.162	  38.155
  637	 14.7400	  0.2020	   3.168	  38.215
  638	 14.7600	  0.2020	   3.172	  38.275
  639	 14.8000	  0.2040	   3.178	  38.335
  640	 14.8200	  0.2040	   3.182	  38.395
  641	 14.8400	  0.2040	   3.188	  38.455
  642	 14.8600	  0.2060	   3.192	  38.515
  643	 14.9000	  0.2060	   3.197	  38.575
  644	 14.9200	  0.2060	   3.202	  38.635
  645	 14.9400	  0.2060	   3.207	  38.695
  646	 14.9600	  0.2080	   3.212	  38.755
  647	 14.9800	  0.2080	   3.219	  38.815
  648	 15.0000	  0.2080	   3.222	  38.875
  649	 15.0200	  0.2080	   3.229	  38.935
  650	 15.0600	  0.2100	   3.234	  38.995
  651	 15.0800	  0.2100	   3.239	  39.055
  652	 15.1000	  0.2120	   3.244	  39.115
  653	 15.1200	  0.2120	   3.249	  39.175
  654	 15.1400	  0.2120	   3.254	  39.235
  655	 15.1600	  0.2140	   3.259	  39.295
  656	 15.1800	  0.2140	   3.264	  39.355
  657	 15.2000	  0.2140	   3.269	  39.415
  658	 15.2400	  0.2160	   3.274	  39.475
  659	 15.2600	  0.2160	   3.279	  39.535
  660	 15.2800	  0.2160	   3.284	  39.595
  661	 15.3000	  0.2180	   3.289	  39.655
  662	 15.3200	  0.2180	   3.294	  39.715
  663	 15.3400	  0.2200	   3.299	  39.775
  664	 15.3600	  0.2200	   3.304	  39.835
  665	 15.3800	  0.2200	   3.309	  39.895
  666	 15.4000	  0.2200	   3.314	  39.955
  667	 15.4400	  0.2220	   3.319	  40.015
  668	 15.4600	  0.2220	   3.324	  40.075
  669	 15.4800	  0.2240	   3.329	  40.135
  670	 15.5000	  0.2240	   3.334	  40.195
  671	 15.5200	  0.2260	   3.339	  40.255
  672	 15.5400	  0.2260	   3.344	  40.315
  673	 15.5600	  0.2280	   3.349	  40.375
  674	 15.5800	  0.2280	   3.354	  40.435
  675	 15.6000	  0.2300	   3.359	  40.495
  676	 15.6000	  0.2300	   3.364	  40.555
  677	 15.6200	  0.2320	   3.369	  40.615
  678	 15.6400	  0.2340	   3.374	  40.675
  679	 15.6600	  0.2340	   3.379	  40.735
  680	 15.6600	  0.2360	   3.384	  40.795
  681	 15.6800	  0.2380	   3.389	  40.855
  682	 15.7000	  0.2400	   3.394	  40.915
  683	 15.7000	  0.2420	   3.399	  40.975
  684	 15.7200	  0.2440	   3.404	  41.035
  685	 15.7200	  0.2460	   3.409	  41.095
  686	 15.7200	  0.2480	   3.414	  41.155
  687	 15.7400	  0.2500	   3.419	  41.215
  688	 15.7400	  0.2540	   3.424	  41.275
  689	 15.7400	  0.2560	   3.429	  41.335
  690	 15.7600	  0.2580	   3.434	  41.395
  691	 15.7600	  0.2620	   3.439	  41.455
  692	 15.7600	  0.2640	   3.444	  41.515
  693	 15.7800	  0.2680	   3.449	  41.575
  694	 15.7800	  0.2700	   3.454	  41.635
  695	 15.7800	  0.2740	   3.459	  41.695
  696	 15.7800	  0.2760	   3.464	  41.755
  697	 15.7800	  0.2800	   3.469	  41.815
  698	 15.8000	  0.2840	   3.474	  41.875
  699	 15.8000	  0.2860	   3.479	  41.935
  700	 15.8000	  0.2900	   3.484	  41.995
  701	 15.8200	  0.2920	   3.489	  42.055
  702	 15.8200	  0.2960	   3.494	  42.115
  703	 15.8200	  0.3000	   3.499	  42.175
  704	 15.8200	  0.3040	   3.504	  42.235
  705	 15.8200	  0.3060	   3.509	  42.295
  706	 15.8400	  0.3120	   3.514	  42.355
  707	 15.8400	  0.3140	   3.520	  42.415
  708	 15.8400	  0.3180	   3.524	  42.475
  709	 15.8400	  0.3220	   3.530	  42.535
  710	 15.8400	  0.3260	   3.534	  42.595
  711	 15.8600	  0.3280	   3.540	  42.655
  712	 15.8600	  0.3320	   3.544	  42.715
  713	 15.8600	  0.3360	   3.550	  42.775
  714	 15.8800	  0.3400	   3.554	  42.835
  715	 15.8600	  0.3440	   3.560	  42.895
  716	 15.8800	  0.3480	   3.565	  42.955
  717	 15.8800	  0.3520	   3.570	  43.015
  718	 15.8800	  0.3560	   3.575	  43.075
  719	 15.8800	  0.3600	   3.580	  43.135
  720	 15.8800	  0.3640	   3.585	  43.195
  721	 15.9000	  0.3660	   3.590	  43.255
  722	 15.9000	  0.3700	   3.595	  43.315
  723	 15.9000	  0.3760	   3.600	  43.375
  724	 15.9000	  0.3780	   3.605	  43.435
  725	 15.9000	  0.3820	   3.610	  43.495
  726	 15.9200	  0.3860	   3.615	  43.555
  727	 15.9200	  0.3900	   3.620	  43.615
  728	 15.9200	  0.3940	   3.625	  43.675
  729	 15.9200	  0.3980	   3.630	  43.735
  730	 15.9200	  0.4020	   3.635	  43.795
  731	 15.9200	  0.4060	   3.640	  43.855
  732	 15.9400	  0.4100	   3.645	  43.915
  733	 15.9400	  0.4140	   3.650	  43.975
  734	 15.9400	  0.4180	   3.655	  44.035
  735	 15.9400	  0.4220	   3.660	  44.095
  736	 15.9600	  0.4260	   3.665	  44.155
  737	 15.9600	  0.4300	   3.670	  44.215
  738	 15.9600	  0.4340	   3.675	  44.275
  739	 15.9600	  0.4380	   3.680	  44.335
  740	 15.9600	  0.4420	   3.685	  44.395
  741	 15.9600	  0.4460	   3.690	  44.455
  742	 15.9600	  0.4500	   3.695	  44.515
  743	 15.9600	  0.4540	   3.700	  44.575
  744	 15.9800	  0.4580	   3.705	  44.635
  745	 15.9800	  0.4620	   3.710	  44.695
  746	 15.9800	  0.4660	   3.715	  44.755
  747	 15.9800	  0.4700	   3.720	  44.815
  748	 15.9800	  0.4740	   3.725	  44.875
  749	 15.9800	  0.4780	   3.730	  44.935
  750	 15.9800	  0.4820	   3.735	  44.995
  751	 16.0000	  0.4860	   3.740	  45.055
  752	 16.0000	  0.4900	   3.745	  45.115
  753	 16.0000	  0.4940	   3.750	  45.175
  754	 16.0000	  0.4980	   3.755	  45.235
  755	 16.0000	  0.5020	   3.760	  45.295
  756	 16.0000	  0.5080	   3.765	  45.355
  757	 16.0200	  0.5100	   3.770	  45.415
  758	 16.0200	  0.5140	   3.776	  45.475
  759	 16.0200	  0.5200	   3.781	  45.535
  760	 16.0200	  0.5220	   3.786	  45.595
  761	 16.0200	  0.5280	   3.791	  45.655
  762	 16.0200	  0.5320	   3.796	  45.715
  763	 16.0200	  0.5360	   3.801	  45.775
  764	 16.0400	  0.5400	   3.806	  45.835
  765	 16.0400	  0.5440	   3.811	  45.895
  766	 16.0400	  0.5480	   3.816	  45.955
  767	 16.0400	  0.5520	   3.821	  46.015
  768	 16.0400	  0.5560	   3.826	  46.075
  769	 16.0400	  0.5600	   3.831	  46.135
  770	 16.0400	  0.5660	   3.836	  46.195
  771	 16.0600	  0.5700	   3.841	  46.255
  772	 16.0600	  0.5740	   3.846	  46.315
  773	 16.0600	  0.5780	   3.851	  46.375
  774	 16.0600	  0.5820	   3.856	  46.435
  775	 16.0600	  0.5860	   3.861	  46.495
  776	 16.0600	  0.5900	   3.866	  46.555
  777	 16.0800	  0.5940	   3.871	  46.615
  778	 16.0800	  0.5980	   3.876	  46.675
  779	 16.0800	  0.6020	   3.881	  46.735
  780	 16.0800	  0.6060	   3.886	  46.795
  781	 16.0800	  0.6120	   3.891	  46.855
  782	 16.0800	  0.6160	   3.896	  46.915
  783	 16.0800	  0.6200	   3.901	  46.975
  784	 16.0800	  0.6240	   3.906	  47.035
  785	 16.0800	  0.6280	   3.911	  47.095
  786	 16.1000	  0.6320	   3.916	  47.155
  787	 16.1000	  0.6360	   3.921	  47.215
  788	 16.1000	  0.6400	   3.926	  47.275
  789	 16.1000	  0.6440	   3.931	  47.335
  790	 16.1000	  0.6480	   3.936	  47.395
  791	 16.1000	  0.6540	   3.941	  47.455
  792	 16.1000	  0.6580	   3.946	  47.515
  793	 16.1200	  0.6620	   3.951	  47.575
  794	 16.1200	  0.6660	   3.956	  47.635
  795	 16.1200	  0.6700	   3.961	  47.695
  796	 16.1200	  0.6740	   3.966	  47.755
  797	 16.1200	  0.6780	   3.971	  47.815
  798	 16.1200	  0.6820	   3.976	  47.875
  799	 16.1200	  0.6880	   3.981	  47.935
  800	 16.1200	  0.6920	   3.986	  47.995
  801	 16.1400	  0.6960	   3.991	  48.055
  802	 16.1400	  0.7000	   3.996	  48.115
  803	 16.1400	  0.7040	   4.001	  48.175
  804	 16.1400	  0.7080	   4.006	  48.235
  805	 16.1400	  0.7120	   4.011	  48.295
  806	 16.1400	  0.7180	   4.016	  48.355
  807	 16.1400	  0.7220	   4.021	  48.415
  808	 16.1400	  0.7260	   4.026	  48.475
  809	 16.1600	  0.7300	   4.031	  48.535
  810	 16.1600	  0.7340	   4.036	  48.595
  811	 16.1600	  0.7380	   4.041	  48.655
  812	 16.1600	  0.7440	   4.046	  48.715
  813	 16.1600	  0.7460	   4.051	  48.775
  814	 16.1600	  0.7520	   4.056	  48.835
  815	 16.1600	  0.7560	   4.060	  48.895
  816	 16.1600	  0.7600	   4.065	  48.955
  817	 16.1600	  0.7640	   4.070	  49.015
  818	 16.1800	  0.7680	   4.075	  49.075
  819	 16.1800	  0.7720	   4.080	  49.135
  820	 16.1800	  0.7760	   4.085	  49.195
  821	 16.1800	  0.7800	   4.090	  49.255
  822	 16.1800	  0.7860	   4.096	  49.315
  823	 16.1800	  0.7900	   4.101	  49.375
  824	 16.1800	  0.7940	   4.106	  49.435
  825	 16.1800	  0.7980	   4.111	  49.495
  826	 16.2000	  0.8020	   4.116	  49.555
  827	 16.2000	  0.8080	   4.121	  49.615
  828	 16.2000	  0.8120	   4.126	  49.675
  829	 16.2000	  0.8160	   4.131	  49.735
  830	 16.2000	  0.8200	   4.136	  49.795
  831	 16.2000	  0.8240	   4.141	  49.855
  832	 16.2000	  0.8280	   4.146	  49.915
  833	 16.2000	  0.8320	   4.151	  49.975
  834	 16.2000	  0.8380	   4.156	  50.035
  835	 16.2200	  0.8420	   4.161	  50.095
  836	 16.2000	  0.8460	   4.166	  50.155
  837	 16.2200	  0.8500	   4.171	  50.215
  838	 16.2200	  0.8540	   4.176	  50.275
  839	 16.2200	  0.8580	   4.181	  50.335
  840	 16.2200	  0.8640	   4.186	  50.395
  841	 16.2200	  0.8680	   4.191	  50.455
  842	 16.2200	  0.8720	   4.196	  50.515
  843	 16.2200	  0.8760	   4.201	  50.575
  844	 16.2200	  0.8820	   4.206	  50.635
  845	 16.2400	  0.8860	   4.211	  50.695
  846	 16.2400	  0.8900	   4.216	  50.755
  847	 16.2400	  0.8940	   4.221	  50.815
  848	 16.2400	  0.8980	   4.226	  50.875
  849	 16.2400	  0.9020	   4.231	  50.935
  850	 16.2400	  0.9060	   4.236	  50.995
  851	 16.2400	  0.9100	   4.241	  51.055
  852	 16.2400	  0.9140	   4.246	  51.115
  853	 16.2400	  0.9180	   4.251	  51.175
  854	 16.2600	  0.9240	   4.256	  51.235
  855	 16.2400	  0.9280	   4.261	  51.295
  856	 16.2600	  0.9320	   4.266	  51.355
  857	 16.2600	  0.9360	   4.271	  51.415
  858	 16.2600	  0.9400	   4.276	  51.475
  859	 16.2600	  0.9440	   4.281	  51.535
  860	 16.2600	  0.9500	   4.286	  51.595
  861	 16.2600	  0.9520	   4.291	  51.655
  862	 16.2600	  0.9580	   4.296	  51.715
  863	 16.2600	  0.9620	   4.301	  51.775
  864	 16.2800	  0.9660	   4.306	  51.835
  865	 16.2800	  0.9720	   4.311	  51.895
  866	 16.2800	  0.9760	   4.316	  51.955
  867	 16.2800	  0.9800	   4.321	  52.015
  868	 16.2800	  0.9840	   4.326	  52.075
  869	 16.2800	  0.9880	   4.331	  52.135
  870	 16.2800	  0.9940	   4.336	  52.195
  871	 16.2800	  0.9980	   4.341	  52.255
  872	 16.2800	  1.0020	   4.346	  52.315
  873	 16.2800	  1.0064	   4.351	  52.375
  874	 16.2800	  1.0114	   4.356	  52.435
  875	 16.3000	  1.0164	   4.361	  52.495
  876	 16.3000	  1.0214	   4.366	  52.555
  877	 16.3000	  1.0264	   4.371	  52.615
  878	 16.3000	  1.0314	   4.376	  52.675
  879	 16.3000	  1.0364	   4.381	  52.735
  880	 16.3000	  1.0414	   4.386	  52.795
  881	 16.3000	  1.0476	   4.392	  52.855
  882	 16.3000	  1.0514	   4.396	  52.915
  883	 16.3000	  1.0576	   4.402	  52.975
  884	 16.3000	  1.0614	   4.406	  53.035
  885	 16.3200	  1.0664	   4.411	  53.095
  886	 16.3200	  1.0726	   4.418	  53.155
  887	 16.3200	  1.0776	   4.423	  53.215
  888	 16.3200	  1.0826	   4.427	  53.275
  889	 16.3200	  1.0876	   4.432	  53.335
  890	 16.3200	  1.0926	   4.438	  53.395
  891	 16.3200	  1.0976	   4.443	  53.455
  892	 16.3200	  1.1026	   4.447	  53.515
  893	 16.3200	  1.1076	   4.452	  53.575
  894	 16.3200	  1.1114	   4.456	  53.635
  895	 16.3200	  1.1176	   4.463	  53.695
  896	 16.3200	  1.1214	   4.466	  53.755
  897	 16.3400	  1.1276	   4.472	  53.815
  898	 16.3400	  1.1326	   4.477	  53.875
  899	 16.3400	  1.1376	   4.483	  53.935
  900	 16.3400	  1.1426	   4.487	  53.995
  901	 16.3400	  1.1476	   4.492	  54.055
  902	 16.3400	  1.1526	   4.497	  54.115
  903	 16.3400	  1.1576	   4.503	  54.175
  904	 16.3400	  1.1626	   4.507	  54.235
  905	 16.3400	  1.1676	   4.512	  54.295
  906	 16.3400	  1.1726	   4.517	  54.355
  907	 16.3400	  1.1776	   4.523	  54.415
  908	 16.3400	  1.1826	   4.527	  54.475
  909	 16.3600	  1.1876	   4.532	  54.535
  910	 16.3600	  1.1926	   4.537	  54.595
  911	 16.3600	  1.1976	   4.543	  54.655
  912	 16.3600	  1.2026	   4.548	  54.715
  913	 16.3600	  1.2076	   4.552	  54.775
  914	 16.3600	  1.2126	   4.557	  54.835
  915	 16.3600	  1.2176	   4.562	  54.895
  916	 16.3600	  1.2226	   4.568	  54.955
  917	 16.3600	  1.2276	   4.572	  55.015
  918	 16.3600	  1.2326	   4.577	  55.075
  919	 16.3800	  1.2376	   4.582	  55.135
  920	 16.3800	  1.2426	   4.588	  55.195
  921	 16.3800	  1.2476	   4.592	  55.255
  922	 16.3800	  1.2526	   4.597	  55.315
  923	 16.3800	  1.2576	   4.602	  55.375
  924	 16.3800	  1.2626	   4.608	  55.435
  925	 16.3800	  1.2676	   4.612	  55.495
  926	 16.3800	  1.2726	   4.617	  55.555
  927	 16.3800	  1.2776	   4.622	  55.615
  928	 16.3800	  1.2826	   4.628	  55.675
  929	 16.3800	  1.2876	   4.632	  55.735
  930	 16.3800	  1.2926	   4.637	  55.795
  931	 16.3800	  1.2976	   4.642	  55.855
  932	 16.3800	  1.3026	   4.648	  55.915
  933	 16.4000	  1.3076	   4.652	  55.975
  934	 16.4000	  1.3126	   4.657	  56.035
  935	 16.4000	  1.3176	   4.662	  56.095
  936	 16.4000	  1.3226	   4.668	  56.155
  937	 16.4000	  1.3276	   4.673	  56.215
  938	 16.4000	  1.3326	   4.677	  56.275
  939	 16.4000	  1.3376	   4.682	  56.335
  940	 16.4000	  1.3426	   4.688	  56.395
  941	 16.4000	  1.3476	   4.693	  56.455
  942	 16.4000	  1.3526	   4.697	  56.515
  943	 16.4000	  1.3576	   4.702	  56.575
  944	 16.4000	  1.3626	   4.707	  56.635
  945	 16.4200	  1.3676	   4.713	  56.695
  946	 16.4000	  1.3726	   4.717	  56.755
  947	 16.4200	  1.3776	   4.722	  56.815
  948	 16.4000	  1.3801	   4.725	  56.875
  949	 16.3400	  1.3801	   4.725	  56.935
  950	 16.2800	  1.3814	   4.726	  56.995
  951	 16.2400	  1.3814	   4.726	  57.055
  952	 16.2000	  1.3814	   4.726	  57.115
  953	 16.1800	  1.3814	   4.726	  57.175
  954	 16.1400	  1.3814	   4.726	  57.235
  955	 16.1200	  1.3814	   4.726	  57.295
  956	 16.1000	  1.3814	   4.726	  57.355
  957	 16.0800	  1.3814	   4.726	  57.415
  958	 16.0600	  1.3814	   4.726	  57.475
  959	 16.0600	  1.3814	   4.726	  57.535
  960	 16.0400	  1.3814	   4.726	  57.595
  961	 16.0200	  1.3814	   4.726	  57.655
  962	 16.0200	  1.3814	   4.726	  57.715
  963	 16.0000	  1.3814	   4.726	  57.775
  964	 16.0000	  1.3814	   4.726	  57.835
  965	 15.9800	  1.3814	   4.726	  57.895
  966	 15.9800	  1.3814	   4.726	  57.955
  967	 15.9600	  1.3814	   4.726	  58.015
  968	 15.9600	  1.3814	   4.726	  58.075
  969	 15.9400	  1.3814	   4.726	  58.135
  970	 15.9400	  1.3814	   4.726	  58.195
  971	 15.9400	  1.3814	   4.726	  58.255
  972	 15.9200	  1.3814	   4.726	  58.315
  973	 15.9200	  1.3814	   4.726	  58.375
  974	 15.9000	  1.3814	   4.726	  58.435
  975	 15.9000	  1.3814	   4.726	  58.495
  976	 15.9000	  1.3814	   4.726	  58.555
  977	 15.9000	  1.3814	   4.726	  58.615
  978	 15.8800	  1.3814	   4.726	  58.675
  979	 15.8800	  1.3814	   4.726	  58.735
  980	 15.8800	  1.3814	   4.726	  58.795
  981	 15.8800	  1.3814	   4.726	  58.855
  982	 15.8600	  1.3814	   4.726	  58.915
  983	 15.8600	  1.3814	   4.726	  58.975
  984	 15.8600	  1.3814	   4.726	  59.035
  985	 15.8600	  1.3814	   4.726	  59.095
  986	 15.8600	  1.3814	   4.726	  59.155
  987	 15.8400	  1.3814	   4.726	  59.215
  988	 15.8400	  1.3814	   4.726	  59.275
  989	 15.8400	  1.3814	   4.726	  59.335
  990	 15.8400	  1.3814	   4.726	  59.395
  991	 15.8200	  1.3814	   4.726	  59.455
  992	 15.8200	  1.3814	   4.726	  59.515
  993	 15.8200	  1.3814	   4.726	  59.575
  994	 15.8200	  1.3814	   4.726	  59.635
  995	 15.8200	  1.3814	   4.726	  59.695
  996	 15.8200	  1.3814	   4.726	  59.755
  997	 15.8000	  1.3814	   4.726	  59.815
  998	 15.8000	  1.3814	   4.726	  59.875
  999	 15.8000	  1.3814	   4.726	  59.935
 1000	 15.8000	  1.3814	   4.726	  59.995
 1001	 15.8000	  1.3814	   4.726	  60.055
 1002	 15.7800	  1.3814	   4.726	  60.115
 1003	 15.7800	  1.3814	   4.726	  60.175
 1004	 15.7800	  1.3814	   4.726	  60.235
 1005	 15.7800	  1.3814	   4.726	  60.295
 1006	 15.7800	  1.3814	   4.726	  60.355
 1007	 15.7800	  1.3814	   4.726	  60.415
 1008	 15.7800	  1.3814	   4.726	  60.475
 1009	 15.7600	  1.3814	   4.726	  60.535
 1010	 15.7800	  1.3814	   4.726	  60.595
 1011	 15.7600	  1.3814	   4.726	  60.655
 1012	 15.7600	  1.3814	   4.726	  60.715
 1013	 15.7600	  1.3814	   4.726	  60.775
 1014	 15.7600	  1.3814	   4.726	  60.835
 1015	 15.7600	  1.3814	   4.726	  60.895
 1016	 15.7600	  1.3814	   4.726	  60.955
 1017	 15.7400	  1.3814	   4.726	  61.015
 1018	 15.7400	  1.3814	   4.726	  61.075
 1019	 15.7400	  1.3814	   4.726	  61.135
 1020	 15.7400	  1.3814	   4.726	  61.195
 1021	 15.7400	  1.3814	   4.726	  61.255
 1022	 15.7400	  1.3814	   4.726	  61.315
 1023	 15.7400	  1.3814	   4.726	  61.375
 1024	 15.7400	  1.3814	   4.726	  61.435
 1025	 15.7400	  1.3814	   4.726	  61.495
 1026	 15.7200	  1.3814	   4.726	  61.555
 1027	 15.7400	  1.3814	   4.726	  61.615
 1028	 15.7200	  1.3814	   4.726	  61.675
 1029	 15.7200	  1.3814	   4.726	  61.735
 1030	 15.7200	  1.3814	   4.726	  61.795
 1031	 15.7200	  1.3814	   4.726	  61.855
 1032	 15.7200	  1.3814	   4.726	  61.915
 1033	 15.7200	  1.3814	   4.726	  61.975
 1034	 15.7200	  1.3814	   4.726	  62.035
 1035	 15.7200	  1.3814	   4.726	  62.095
 1036	 15.7200	  1.3814	   4.726	  62.155
 1037	 15.7000	  1.3814	   4.726	  62.215
 1038	 15.7000	  1.3814	   4.726	  62.275
 1039	 15.7000	  1.3814	   4.726	  62.335
 1040	 15.7000	  1.3814	   4.726	  62.395
 1041	 15.7000	  1.3814	   4.726	  62.455
 1042	 15.7000	  1.3814	   4.726	  62.515
 1043	 15.7000	  1.3814	   4.726	  62.575
 1044	 15.7000	  1.3814	   4.726	  62.635
 1045	 15.7000	  1.3814	   4.726	  62.695
 1046	 15.7000	  1.3814	   4.726	  62.755
 1047	 15.7000	  1.3814	   4.726	  62.815
 1048	 15.6800	  1.3814	   4.726	  62.875
 1049	 15.6800	  1.3814	   4.726	  62.935
 1050	 15.6800	  1.3814	   4.726	  62.995
 1051	 15.6800	  1.3814	   4.726	  63.055
 1052	 15.6800	  1.3814	   4.726	  63.115
 1053	 15.6800	  1.3814	   4.726	  63.175
 1054	 15.6800	  1.3814	   4.726	  63.235
 1055	 15.6800	  1.3814	   4.726	  63.295
 1056	 15.6800	  1.3814	   4.726	  63.355
 1057	 15.6800	  1.3814	   4.726	  63.415
 1058	 15.6800	  1.3814	   4.726	  63.475
 1059	 15.6800	  1.3814	   4.726	  63.535
 1060	 15.6800	  1.3814	   4.726	  63.595
 1061	 15.6600	  1.3814	   4.726	  63.655
 1062	 15.6600	  1.3814	   4.726	  63.715
 1063	 15.6600	  1.3814	   4.726	  63.775
 1064	 15.6600	  1.3814	   4.726	  63.835
 1065	 15.6600	  1.3814	   4.726	  63.895
 1066	 15.6600	  1.3814	   4.726	  63.955
 1067	 15.6600	  1.3814	   4.726	  64.015
 1068	 15.6600	  1.3814	   4.726	  64.075
 1069	 15.6600	  1.3814	   4.726	  64.135
 1070	 15.6600	  1.3814	   4.726	  64.195
 1071	 15.6600	  1.3814	   4.726	  64.255
 1072	 15.6600	  1.3814	   4.726	  64.315
 1073	 15.6600	  1.3814	   4.726	  64.375
 1074	 15.6600	  1.3814	   4.726	  64.435
 1075	 15.6600	  1.3814	   4.726	  64.495
 1076	 15.6400	  1.3814	   4.726	  64.555
 1077	 15.6400	  1.3814	   4.726	  64.615
 1078	 15.6400	  1.3814	   4.726	  64.675
 1079	 15.6400	  1.3814	   4.726	  64.735
 1080	 15.6400	  1.3814	   4.726	  64.795
 1081	 15.6400	  1.3814	   4.726	  64.855
 1082	 15.6400	  1.3814	   4.726	  64.915
 1083	 15.6400	  1.3814	   4.726	  64.975
 1084	 15.6400	  1.3814	   4.726	  65.035
 1085	 15.6400	  1.3814	   4.726	  65.095
 1086	 15.6400	  1.3814	   4.726	  65.155
 1087	 15.6400	  1.3814	   4.726	  65.215
 1088	 15.6400	  1.3814	   4.726	  65.275
 1089	 15.6400	  1.3814	   4.726	  65.335
 1090	 15.6400	  1.3814	   4.726	  65.395
 1091	 15.6200	  1.3814	   4.726	  65.455
 1092	 15.6200	  1.3814	   4.726	  65.515
 1093	 15.6200	  1.3814	   4.726	  65.575
 1094	 15.6200	  1.3814	   4.726	  65.635
 1095	 15.6200	  1.3814	   4.726	  65.695
 1096	 15.6200	  1.3814	   4.726	  65.755
 1097	 15.6200	  1.3814	   4.726	  65.815
 1098	 15.6200	  1.3814	   4.726	  65.875
 1099	 15.6200	  1.3814	   4.726	  65.935
 1100	 15.6200	  1.3814	   4.726	  65.995
 1101	 15.6200	  1.3814	   4.726	  66.055
 1102	 15.6200	  1.3814	   4.726	  66.115
 1103	 15.6200	  1.3814	   4.726	  66.175
 1104	 15.6200	  1.3814	   4.726	  66.235
 1105	 15.6200	  1.3814	   4.726	  66.295
 1106	 15.6200	  1.3814	   4.726	  66.355
 1107	 15.6200	  1.3814	   4.726	  66.415
 1108	 15.6200	  1.3814	   4.726	  66.475
 1109	 15.6000	  1.3814	   4.726	  66.535
 1110	 15.6200	  1.3814	   4.726	  66.595
 1111	 15.6000	  1.3814	   4.726	  66.655
 1112	 15.6000	  1.3814	   4.726	  66.715
 1113	 15.6000	  1.3814	   4.726	  66.775
 1114	 15.6000	  1.3814	   4.726	  66.835
 1115	 15.6000	  1.3814	   4.726	  66.895
 1116	 15.6000	  1.3814	   4.726	  66.955
 1117	 15.6000	  1.3814	   4.726	  67.015
 1118	 15.6000	  1.3814	   4.726	  67.075
 1119	 15.6000	  1.3814	   4.726	  67.135
 1120	 15.6000	  1.3814	   4.726	  67.195
 1121	 15.6000	  1.3814	   4.726	  67.255
 1122	 15.6000	  1.3814	   4.726	  67.315
 1123	 15.6000	  1.3814	   4.726	  67.375
 1124	 15.6000	  1.3814	   4.726	  67.435
 1125	 15.6000	  1.3814	   4.726	  67.495
 1126	 15.6000	  1.3814	   4.726	  67.555
 1127	 15.6000	  1.3814	   4.726	  67.615
 1128	 15.6000	  1.3814	   4.726	  67.675
 1129	 15.6000	  1.3814	   4.726	  67.735
 1130	 15.6000	  1.3814	   4.726	  67.795
 1131	 15.5800	  1.3814	   4.726	  67.855
 1132	 15.5800	  1.3814	   4.726	  67.915
 1133	 15.5800	  1.3814	   4.726	  67.975
 1134	 15.5800	  1.3814	   4.726	  68.035
 1135	 15.5800	  1.3814	   4.726	  68.095
 1136	 15.5800	  1.3814	   4.726	  68.155
 1137	 15.5800	  1.3814	   4.726	  68.215
 1138	 15.5800	  1.3814	   4.726	  68.275
 1139	 15.5800	  1.3814	   4.726	  68.335
 1140	 15.5800	  1.3814	   4.726	  68.395
 1141	 15.5800	  1.3814	   4.726	  68.455
 1142	 15.5800	  1.3814	   4.726	  68.515
 1143	 15.5800	  1.3814	   4.726	  68.575
 1144	 15.5800	  1.3814	   4.726	  68.635
 1145	 15.5800	  1.3814	   4.726	  68.695
 1146	 15.5800	  1.3814	   4.726	  68.755
 1147	 15.5800	  1.3814	   4.726	  68.815
 1148	 15.5800	  1.3814	   4.726	  68.875
 1149	 15.5800	  1.3814	   4.726	  68.935
 1150	 15.5800	  1.3814	   4.726	  68.995
 1151	 15.5800	  1.3814	   4.726	  69.055
 1152	 15.5600	  1.3814	   4.726	  69.115
 1153	 15.5600	  1.3814	   4.726	  69.175
 1154	 15.5600	  1.3814	   4.726	  69.235
 1155	 15.5600	  1.3814	   4.726	  69.295
 1156	 15.5600	  1.3814	   4.726	  69.355
 1157	 15.5600	  1.3814	   4.726	  69.415
 1158	 15.5600	  1.3814	   4.726	  69.475
 1159	 15.5600	  1.3814	   4.726	  69.535
 1160	 15.5600	  1.3814	   4.726	  69.595
 1161	 15.5600	  1.3814	   4.726	  69.655
 1162	 15.5600	  1.3814	   4.726	  69.715
 1163	 15.5600	  1.3814	   4.726	  69.775
 1164	 15.5600	  1.3814	   4.726	  69.835
 1165	 15.5600	  1.3814	   4.726	  69.895
 1166	 15.5600	  1.3814	   4.726	  69.955
 1167	 15.5600	  1.3814	   4.726	  70.015
 1168	 15.5600	  1.3814	   4.726	  70.075
 1169	 15.5600	  1.3814	   4.726	  70.135
 1170	 15.5600	  1.3814	   4.726	  70.195
 1171	 15.5600	  1.3814	   4.726	  70.255
 1172	 15.5600	  1.3814	   4.726	  70.315
 1173	 15.5600	  1.3814	   4.726	  70.375
 1174	 15.5600	  1.3814	   4.726	  70.435
 1175	 15.5600	  1.3814	   4.726	  70.495
 1176	 15.5600	  1.3814	   4.726	  70.555
 1177	 15.5600	  1.3814	   4.726	  70.615
 1178	 15.5600	  1.3814	   4.726	  70.675
 1179	 15.5400	  1.3814	   4.726	  70.735
 1180	 15.5400	  1.3814	   4.726	  70.795
 1181	 15.5400	  1.3814	   4.726	  70.855
 1182	 15.5400	  1.3814	   4.726	  70.915
 1183	 15.5400	  1.3814	   4.726	  70.975
 1184	 15.5400	  1.3814	   4.726	  71.035
 1185	 15.5400	  1.3814	   4.726	  71.095
 1186	 15.5400	  1.3814	   4.726	  71.155
 1187	 15.5400	  1.3814	   4.726	  71.215
 1188	 15.5400	  1.3814	   4.726	  71.275
 1189	 15.5400	  1.3814	   4.726	  71.335
 1190	 15.5400	  1.3814	   4.726	  71.395
 1191	 15.5400	  1.3814	   4.726	  71.455
 1192	 15.5400	  1.3814	   4.726	  71.515
 1193	 15.5400	  1.3814	   4.726	  71.575
 1194	 15.5400	  1.3814	   4.726	  71.635
 1195	 15.5400	  1.3814	   4.726	  71.695
 1196	 15.5400	  1.3814	   4.726	  71.755
 1197	 15.5400	  1.3814	   4.726	  71.815
 1198	 15.5400	  1.3814	   4.726	  71.875
 1199	 15.5400	  1.3814	   4.726	  71.935
 1200	 15.5400	  1.3814	   4.726	  71.995
 1201	 15.5400	  1.3814	   4.726	  72.055
 1202	 15.5400	  1.3814	   4.726	  72.115
 1203	 15.5400	  1.3814	   4.726	  72.175
 1204	 15.5400	  1.3814	   4.726	  72.235
 1205	 15.5400	  1.3814	   4.726	  72.295
 1206	 15.5400	  1.3814	   4.726	  72.355
 1207	 15.5200	  1.3814	   4.726	  72.415
 1208	 15.5200	  1.3814	   4.726	  72.475
 1209	 15.5400	  1.3814	   4.726	  72.535
 1210	 15.5400	  1.3814	   4.726	  72.595
 1211	 15.5200	  1.3814	   4.726	  72.655
 1212	 15.5200	  1.3814	   4.726	  72.715
 1213	 15.5200	  1.3814	   4.726	  72.775
 1214	 15.5200	  1.3814	   4.726	  72.835
 1215	 15.5200	  1.3814	   4.726	  72.895
 1216	 15.5200	  1.3814	   4.726	  72.955
 1217	 15.5200	  1.3814	   4.726	  73.015
 1218	 15.5200	  1.3814	   4.726	  73.075
 1219	 15.5200	  1.3814	   4.726	  73.135
 1220	 15.5200	  1.3814	   4.726	  73.195
 1221	 15.5200	  1.3814	   4.726	  73.255
 1222	 15.5200	  1.3814	   4.726	  73.315
 1223	 15.5200	  1.3814	   4.726	  73.375
 1224	 15.5200	  1.3814	   4.726	  73.435
 1225	 15.5200	  1.3814	   4.726	  73.495
 1226	 15.5200	  1.3814	   4.726	  73.555
 1227	 15.5200	  1.3814	   4.726	  73.615
 1228	 15.5200	  1.3814	   4.726	  73.675
 1229	 15.5200	  1.3814	   4.726	  73.735
 1230	 15.5200	  1.3814	   4.726	  73.795
 1231	 15.5200	  1.3814	   4.726	  73.855
 1232	 15.5200	  1.3814	   4.726	  73.915
 1233	 15.5200	  1.3814	   4.726	  73.975
 1234	 15.5200	  1.3814	   4.726	  74.035
 1235	 15.5200	  1.3814	   4.726	  74.095
 1236	 15.5000	  1.3814	   4.726	  74.155
 1237	 15.5200	  1.3814	   4.726	  74.215
 1238	 15.5200	  1.3814	   4.726	  74.275
 1239	 15.5200	  1.3814	   4.726	  74.335
 1240	 15.5000	  1.3814	   4.726	  74.395
 1241	 15.5200	  1.3814	   4.726	  74.455
 1242	 15.5000	  1.3814	   4.726	  74.515
 1243	 15.5000	  1.3814	   4.726	  74.575
 1244	 15.5000	  1.3814	   4.726	  74.635
 1245	 15.5000	  1.3814	   4.726	  74.695
 1246	 15.5000	  1.3814	   4.726	  74.755
 1247	 15.5000	  1.3814	   4.726	  74.815
 1248	 15.5000	  1.3814	   4.726	  74.875
 1249	 15.5000	  1.3814	   4.726	  74.935
 1250	 15.5000	  1.3814	   4.726	  74.995
 1251	 15.5000	  1.3814	   4.726	  75.055
 1252	 15.5000	  1.3814	   4.726	  75.115
 1253	 15.5000	  1.3814	   4.726	  75.175
 1254	 15.5000	  1.3814	   4.726	  75.235
 1255	 15.5000	  1.3814	   4.726	  75.295
 1256	 15.5000	  1.3814	   4.726	  75.355
 1257	 15.5000	  1.3814	   4.726	  75.415
 1258	 15.5000	  1.3814	   4.726	  75.475
 1259	 15.5000	  1.3814	   4.726	  75.535
 1260	 15.5000	  1.3814	   4.726	  75.595
 1261	 15.5000	  1.3814	   4.726	  75.655
 1262	 15.5000	  1.3814	   4.726	  75.715
 1263	 15.5000	  1.3814	   4.726	  75.775
 1264	 15.5000	  1.3814	   4.726	  75.835
 1265	 15.5000	  1.3814	   4.726	  75.895
 1266	 15.5000	  1.3814	   4.726	  75.955
 1267	 15.5000	  1.3814	   4.726	  76.015
 1268	 15.5000	  1.3814	   4.726	  76.075
 1269	 15.5000	  1.3814	   4.726	  76.135
 1270	 15.5000	  1.3814	   4.726	  76.195
 1271	 15.5000	  1.3814	   4.726	  76.255
 1272	 15.5000	  1.3814	   4.726	  76.315
 1273	 15.5000	  1.3814	   4.726	  76.375
 1274	 15.5000	  1.3814	   4.726	  76.435
 1275	 15.5000	  1.3814	   4.726	  76.495
 1276	 15.4800	  1.3814	   4.726	  76.555
 1277	 15.4800	  1.3814	   4.726	  76.615
 1278	 15.5000	  1.3814	   4.726	  76.675
 1279	 15.4800	  1.3814	   4.726	  76.735
 1280	 15.4800	  1.3814	   4.726	  76.795
 1281	 15.5000	  1.3814	   4.726	  76.855
 1282	 15.4800	  1.3814	   4.726	  76.915
 1283	 15.4800	  1.3814	   4.726	  76.975
 1284	 15.4800	  1.3814	   4.726	  77.035
 1285	 15.4800	  1.3814	   4.726	  77.095
 1286	 15.4800	  1.3814	   4.726	  77.155
 1287	 15.4800	  1.3814	   4.726	  77.215
 1288	 15.4800	  1.3814	   4.726	  77.275
 1289	 15.4800	  1.3814	   4.726	  77.335
 1290	 15.4800	  1.3814	   4.726	  77.395
 1291	 15.4800	  1.3814	   4.726	  77.455
 1292	 15.4800	  1.3814	   4.726	  77.515
 1293	 15.4800	  1.3814	   4.726	  77.575
 1294	 15.4800	  1.3814	   4.726	  77.635
 1295	 15.4800	  1.3814	   4.726	  77.695
 1296	 15.4800	  1.3814	   4.726	  77.755
 1297	 15.4800	  1.3814	   4.726	  77.815
 1298	 15.4800	  1.3814	   4.726	  77.875
 1299	 15.4800	  1.3814	   4.726	  77.935
 1300	 15.4800	  1.3814	   4.726	  77.995
 1301	 15.4800	  1.3814	   4.726	  78.055
 1302	 15.4800	  1.3814	   4.726	  78.115
 1303	 15.4800	  1.3814	   4.726	  78.175
 1304	 15.4800	  1.3814	   4.726	  78.235
 1305	 15.4800	  1.3814	   4.726	  78.295
 1306	 15.4800	  1.3814	   4.726	  78.355
 1307	 15.4800	  1.3814	   4.726	  78.415
 1308	 15.4800	  1.3814	   4.726	  78.475
 1309	 15.4800	  1.3814	   4.726	  78.535
 1310	 15.4800	  1.3814	   4.726	  78.595
 1311	 15.4600	  1.3814	   4.726	  78.655
 1312	 15.4600	  1.3814	   4.726	  78.715
 1313	 15.4800	  1.3814	   4.726	  78.775
 1314	 15.4800	  1.3814	   4.726	  78.835
 1315	 15.4600	  1.3814	   4.726	  78.895
 1316	 15.4600	  1.3814	   4.726	  78.955
 1317	 15.4600	  1.3814	   4.726	  79.015
 1318	 15.4600	  1.3814	   4.726	  79.075
 1319	 15.4600	  1.3814	   4.726	  79.135
 1320	 15.4800	  1.3814	   4.726	  79.195
 1321	 15.4600	  1.3814	   4.726	  79.255
 1322	 15.4600	  1.3814	   4.726	  79.315
 1323	 15.4600	  1.3814	   4.726	  79.375
 1324	 15.4600	  1.3814	   4.726	  79.435
 1325	 15.4600	  1.3814	   4.726	  79.495
 1326	 15.4600	  1.3814	   4.726	  79.555
 1327	 15.4600	  1.3814	   4.726	  79.615
 1328	 15.4600	  1.3814	   4.726	  79.675
 1329	 15.4600	  1.3814	   4.726	  79.735
 1330	 15.4600	  1.3814	   4.726	  79.795
 1331	 15.4600	  1.3814	   4.726	  79.855
 1332	 15.4600	  1.3814	   4.726	  79.915
 1333	 15.4600	  1.3814	   4.726	  79.975
 1334	 15.4600	  1.3814	   4.726	  80.035
 1335	 15.4600	  1.3814	   4.726	  80.095
 1336	 15.4600	  1.3814	   4.726	  80.155
 1337	 15.4600	  1.3814	   4.726	  80.215
 1338	 15.4600	  1.3814	   4.726	  80.275
 1339	 15.4600	  1.3814	   4.726	  80.335
 1340	 15.4600	  1.3814	   4.726	  80.395
 1341	 15.4600	  1.3814	   4.726	  80.455
 1342	 15.4600	  1.3814	   4.726	  80.515
 1343	 15.4600	  1.3814	   4.726	  80.575
 1344	 15.4600	  1.3814	   4.726	  80.635
 1345	 15.4600	  1.3814	   4.726	  80.695
 1346	 15.4600	  1.3814	   4.726	  80.755
 1347	 15.4600	  1.3814	   4.726	  80.815
 1348	 15.4600	  1.3814	   4.726	  80.875
 1349	 15.4600	  1.3814	   4.726	  80.935
 1350	 15.4600	  1.3814	   4.726	  80.995
 1351	 15.4600	  1.3814	   4.726	  81.055
 1352	 15.4600	  1.3814	   4.726	  81.115
 1353	 15.4600	  1.3814	   4.726	  81.175
 1354	 15.4600	  1.3814	   4.726	  81.235
 1355	 15.4600	  1.3814	   4.726	  81.295
 1356	 15.4600	  1.3814	   4.726	  81.355
 1357	 15.4400	  1.3814	   4.726	  81.415
 1358	 15.4400	  1.3814	   4.726	  81.475
 1359	 15.4600	  1.3814	   4.726	  81.535
 1360	 15.4400	  1.3814	   4.726	  81.595
 1361	 15.4400	  1.3814	   4.726	  81.655
 1362	 15.4600	  1.3814	   4.726	  81.715
 1363	 15.4600	  1.3814	   4.726	  81.775
 1364	 15.4400	  1.3814	   4.726	  81.835
 1365	 15.4600	  1.3814	   4.726	  81.895
 1366	 15.4600	  1.3814	   4.726	  81.955
 1367	 15.4400	  1.3814	   4.726	  82.015
 1368	 15.4400	  1.3814	   4.726	  82.075
 1369	 15.4400	  1.3814	   4.726	  82.135
 1370	 15.4400	  1.3814	   4.726	  82.195
 1371	 15.4400	  1.3814	   4.726	  82.255
 1372	 15.4400	  1.3814	   4.726	  82.315
 1373	 15.4400	  1.3814	   4.726	  82.375
 1374	 15.4400	  1.3814	   4.726	  82.435
 1375	 15.4400	  1.3814	   4.726	  82.495
 1376	 15.4400	  1.3814	   4.726	  82.555
 1377	 15.4400	  1.3814	   4.726	  82.615
 1378	 15.4400	  1.3814	   4.726	  82.675
 1379	 15.4400	  1.3814	   4.726	  82.735
 1380	 15.4400	  1.3814	   4.726	  82.795
 1381	 15.4400	  1.3814	   4.726	  82.855
 1382	 15.4400	  1.3814	   4.726	  82.915
 1383	 15.4400	  1.3814	   4.726	  82.975
 1384	 15.4400	  1.3814	   4.726	  83.035
 1385	 15.4400	  1.3814	   4.726	  83.095
 1386	 15.4400	  1.3814	   4.726	  83.155
 1387	 15.4400	  1.3814	   4.726	  83.215
 1388	 15.4400	  1.3814	   4.726	  83.275
 1389	 15.4400	  1.3814	   4.726	  83.335
 1390	 15.4400	  1.3814	   4.726	  83.395
 1391	 15.4400	  1.3814	   4.726	  83.455
 1392	 15.4400	  1.3814	   4.726	  83.515
 1393	 15.4400	  1.3814	   4.726	  83.575
 1394	 15.4400	  1.3814	   4.726	  83.635
 1395	 15.4400	  1.3814	   4.726	  83.695
 1396	 15.4400	  1.3814	   4.726	  83.755
 1397	 15.4400	  1.3814	   4.726	  83.815
 1398	 15.4400	  1.3814	   4.726	  83.875
 1399	 15.4400	  1.3814	   4.726	  83.935
 1400	 15.4200	  1.3814	   4.726	  83.995
 1401	 15.4400	  1.3814	   4.726	  84.055
 1402	 15.4400	  1.3814	   4.726	  84.115
 1403	 15.4400	  1.3814	   4.726	  84.175
 1404	 15.4400	  1.3814	   4.726	  84.235
 1405	 15.4200	  1.3814	   4.726	  84.295
 1406	 15.4400	  1.3814	   4.726	  84.355
 1407	 15.4200	  1.3814	   4.726	  84.415
 1408	 15.4200	  1.3814	   4.726	  84.475
 1409	 15.4200	  1.3814	   4.726	  84.535
 1410	 15.4200	  1.3814	   4.726	  84.595
 1411	 15.4200	  1.3814	   4.726	  84.655
 1412	 15.4200	  1.3814	   4.726	  84.715
 1413	 15.4200	  1.3814	   4.726	  84.775
 1414	 15.4200	  1.3814	   4.726	  84.835
 1415	 15.4200	  1.3814	   4.726	  84.895
 1416	 15.4200	  1.3814	   4.726	  84.955
 1417	 15.4200	  1.3814	   4.726	  85.015
 1418	 15.4200	  1.3814	   4.726	  85.075
 1419	 15.4200	  1.3814	   4.726	  85.135
 1420	 15.4200	  1.3814	   4.726	  85.195
 1421	 15.4200	  1.3814	   4.726	  85.255
 1422	 15.4200	  1.3814	   4.726	  85.315
 1423	 15.4200	  1.3814	   4.726	  85.375
 1424	 15.4200	  1.3814	   4.726	  85.435
 1425	 15.4200	  1.3814	   4.726	  85.495
 1426	 15.4200	  1.3814	   4.726	  85.555
 1427	 15.4200	  1.3814	   4.726	  85.615
 1428	 15.4200	  1.3814	   4.726	  85.675
 1429	 15.4200	  1.3814	   4.726	  85.735
 1430	 15.4200	  1.3814	   4.726	  85.795
 1431	 15.4200	  1.3814	   4.726	  85.855
 1432	 15.4200	  1.3814	   4.726	  85.915
 1433	 15.4200	  1.3814	   4.726	  85.975
 1434	 15.4200	  1.3814	   4.726	  86.035
 1435	 15.4200	  1.3814	   4.726	  86.095
 1436	 15.4200	  1.3814	   4.726	  86.155
 1437	 15.4200	  1.3814	   4.726	  86.215
 1438	 15.4200	  1.3814	   4.726	  86.275
 1439	 15.4200	  1.3814	   4.726	  86.335
 1440	 15.4200	  1.3814	   4.726	  86.395
 1441	 15.4200	  1.3814	   4.726	  86.455
 1442	 15.4200	  1.3814	   4.726	  86.515
 1443	 15.4200	  1.3814	   4.726	  86.575
 1444	 15.4200	  1.3814	   4.726	  86.635
 1445	 15.4200	  1.3814	   4.726	  86.695
 1446	 15.4200	  1.3814	   4.726	  86.755
 1447	 15.4200	  1.3814	   4.726	  86.815
 1448	 15.4200	  1.3814	   4.726	  86.875
 1449	 15.4200	  1.3814	   4.726	  86.935
 1450	 15.4200	  1.3814	   4.726	  86.995
 1451	 15.4200	  1.3814	   4.726	  87.055
 1452	 15.4200	  1.3814	   4.726	  87.115
 1453	 15.4200	  1.3814	   4.726	  87.175
 1454	 15.4200	  1.3814	   4.726	  87.235
 1455	 15.4200	  1.3814	   4.726	  87.295
 1456	 15.4200	  1.3814	   4.726	  87.355
 1457	 15.4200	  1.3814	   4.726	  87.415
 1458	 15.4200	  1.3814	   4.726	  87.475
 1459	 15.4000	  1.3814	   4.726	  87.535
 1460	 15.4200	  1.3814	   4.726	  87.595
 1461	 15.4000	  1.3814	   4.726	  87.655
 1462	 15.4000	  1.3814	   4.726	  87.715
 1463	 15.4000	  1.3814	   4.726	  87.775
 1464	 15.4000	  1.3814	   4.726	  87.835
 1465	 15.4000	  1.3814	   4.726	  87.895
 1466	 15.4000	  1.3814	   4.726	  87.955
 1467	 15.4000	  1.3814	   4.726	  88.015
 1468	 15.4000	  1.3814	   4.726	  88.075
 1469	 15.4000	  1.3814	   4.726	  88.135
 1470	 15.4000	  1.3814	   4.726	  88.195
 1471	 15.4000	  1.3814	   4.726	  88.255
 1472	 15.4000	  1.3814	   4.726	  88.315
 1473	 15.4000	  1.3814	   4.726	  88.375
 1474	 15.4000	  1.3814	   4.726	  88.435
 1475	 15.4000	  1.3814	   4.726	  88.495
 1476	 15.4000	  1.3814	   4.726	  88.555
 1477	 15.4000	  1.3814	   4.726	  88.615
 1478	 15.4000	  1.3814	   4.726	  88.675
 1479	 15.4000	  1.3814	   4.726	  88.735
 1480	 15.4000	  1.3814	   4.726	  88.795
 1481	 15.4000	  1.3814	   4.726	  88.855
 1482	 15.4000	  1.3814	   4.726	  88.915
 1483	 15.4000	  1.3814	   4.726	  88.975
 1484	 15.4000	  1.3814	   4.726	  89.035
 1485	 15.4000	  1.3814	   4.726	  89.095
 1486	 15.4000	  1.3814	   4.726	  89.155
 1487	 15.4000	  1.3814	   4.726	  89.215
 1488	 15.4000	  1.3814	   4.726	  89.275
 1489	 15.4000	  1.3814	   4.726	  89.335
 1490	 15.4000	  1.3814	   4.726	  89.395
 1491	 15.4000	  1.3814	   4.726	  89.455
 1492	 15.4000	  1.3814	   4.726	  89.515
 1493	 15.4000	  1.3814	   4.726	  89.575
 1494	 15.4000	  1.3814	   4.726	  89.635
 1495	 15.4000	  1.3814	   4.726	  89.695
 1496	 15.4000	  1.3814	   4.726	  89.755
 1497	 15.4000	  1.3814	   4.726	  89.815
 1498	 15.4000	  1.3814	   4.726	  89.875
 1499	 15.4000	  1.3814	   4.726	  89.935
 1500	 15.4000	  1.3814	   4.726	  89.995
 1501	 15.4000	  1.3814	   4.726	  90.055
 1502	 15.4000	  1.3814	   4.726	  90.115
 1503	 15.4000	  1.3814	   4.726	  90.175
 1504	 15.4000	  1.3814	   4.726	  90.235
 1505	 15.4000	  1.3814	   4.726	  90.295
 1506	 15.4000	  1.3814	   4.726	  90.355
 1507	 15.4000	  1.3814	   4.726	  90.415
 1508	 15.4000	  1.3814	   4.726	  90.475
 1509	 15.4000	  1.3814	   4.726	  90.535
 1510	 15.4000	  1.3814	   4.726	  90.595
 1511	 15.4000	  1.3814	   4.726	  90.655
 1512	 15.4000	  1.3814	   4.726	  90.715
 1513	 15.4000	  1.3814	   4.726	  90.775
 1514	 15.4000	  1.3814	   4.726	  90.835
 1515	 15.3800	  1.3814	   4.726	  90.895
 1516	 15.4000	  1.3814	   4.726	  90.955
 1517	 15.4000	  1.3814	   4.726	  91.015
 1518	 15.4000	  1.3814	   4.726	  91.075
 1519	 15.3800	  1.3814	   4.726	  91.135
 1520	 15.3800	  1.3814	   4.726	  91.195
 1521	 15.4000	  1.3814	   4.726	  91.255
 1522	 15.4000	  1.3814	   4.726	  91.315
 1523	 15.4000	  1.3814	   4.726	  91.375
 1524	 15.3800	  1.3814	   4.726	  91.435
 1525	 15.4000	  1.3814	   4.726	  91.495
 1526	 15.4000	  1.3814	   4.726	  91.555
 1527	 15.3800	  1.3814	   4.726	  91.615
 1528	 15.3800	  1.3814	   4.726	  91.675
 1529	 15.3800	  1.3814	   4.726	  91.735
 1530	 15.3800	  1.3814	   4.726	  91.795
 1531	 15.3800	  1.3814	   4.726	  91.855
 1532	 15.3800	  1.3814	   4.726	  91.915
 1533	 15.3800	  1.3814	   4.726	  91.975
 1534	 15.3800	  1.3814	   4.726	  92.035
 1535	 15.3800	  1.3814	   4.726	  92.095
 1536	 15.3800	  1.3814	   4.726	  92.155
 1537	 15.3800	  1.3814	   4.726	  92.215
 1538	 15.3800	  1.3814	   4.726	  92.275
 1539	 15.3800	  1.3814	   4.726	  92.335
 1540	 15.3800	  1.3814	   4.726	  92.395
 1541	 15.3800	  1.3814	   4.726	  92.455
 1542	 15.3800	  1.3814	   4.726	  92.515
 1543	 15.3800	  1.3814	   4.726	  92.575
 1544	 15.3800	  1.3814	   4.726	  92.635
 1545	 15.3800	  1.3814	   4.726	  92.695
 1546	 15.3800	  1.3814	   4.726	  92.755
 1547	 15.3800	  1.3814	   4.726	  92.815
 1548	 15.3800	  1.3814	   4.726	  92.875
 1549	 15.3800	  1.3814	   4.726	  92.935
 1550	 15.3800	  1.3814	   4.726	  92.995
 1551	 15.3800	  1.3814	   4.726	  93.055
 1552	 15.3800	  1.3814	   4.726	  93.115
 1553	 15.3800	  1.3814	   4.726	  93.175
 1554	 15.3800	  1.3814	   4.726	  93.235
 1555	 15.3800	  1.3814	   4.726	  93.295
 1556	 15.3800	  1.3814	   4.726	  93.355
 1557	 15.3800	  1.3814	   4.726	  93.415
 1558	 15.3800	  1.3814	   4.726	  93.475
 1559	 15.3800	  1.3814	   4.726	  93.535
 1560	 15.3800	  1.3814	   4.726	  93.595
 1561	 15.3800	  1.3814	   4.726	  93.655
 1562	 15.3800	  1.3814	   4.726	  93.715
 1563	 15.3800	  1.3814	   4.726	  93.775
 1564	 15.3800	  1.3814	   4.726	  93.835
 1565	 15.3800	  1.3814	   4.726	  93.895
 1566	 15.3800	  1.3814	   4.726	  93.955
 1567	 15.3800	  1.3814	   4.726	  94.015
 1568	 15.3800	  1.3814	   4.726	  94.075
 1569	 15.3800	  1.3814	   4.726	  94.135
 1570	 15.3800	  1.3814	   4.726	  94.195
 1571	 15.3800	  1.3814	   4.726	  94.255
 1572	 15.3800	  1.3814	   4.726	  94.315
 1573	 15.3800	  1.3814	   4.726	  94.375
 1574	 15.3800	  1.3814	   4.726	  94.435
 1575	 15.3800	  1.3814	   4.726	  94.495
 1576	 15.3800	  1.3814	   4.726	  94.555
 1577	 15.3800	  1.3814	   4.726	  94.615
 1578	 15.3800	  1.3851	   4.730	  94.675
 1579	 15.4800	  1.3889	   4.734	  94.735
 1580	 15.6000	  1.3951	   4.740	  94.795
 1581	 15.7200	  1.3989	   4.744	  94.855
 1582	 15.8200	  1.4039	   4.749	  94.915
 1583	 15.9400	  1.4089	   4.754	  94.975
 1584	 16.0400	  1.4139	   4.759	  95.035
 1585	 16.1400	  1.4189	   4.764	  95.095
 1586	 16.2400	  1.4239	   4.769	  95.155
 1587	 16.3400	  1.4289	   4.774	  95.215
 1588	 16.4200	  1.4339	   4.779	  95.275
 1589	 16.4800	  1.4389	   4.784	  95.335
 1590	 16.5600	  1.4439	   4.789	  95.395
 1591	 16.6000	  1.4489	   4.794	  95.455
 1592	 16.6400	  1.4539	   4.799	  95.515
 1593	 16.6600	  1.4589	   4.804	  95.575
 1594	 16.6600	  1.4639	   4.809	  95.635
 1595	 16.6600	  1.4689	   4.814	  95.695
 1596	 16.6600	  1.4739	   4.819	  95.755
 1597	 16.6400	  1.4789	   4.824	  95.815
 1598	 16.6200	  1.4839	   4.829	  95.875
 1599	 16.6000	  1.4889	   4.834	  95.935
 1600	 16.6000	  1.4939	   4.839	  95.995
 1601	 16.6000	  1.4989	   4.844	  96.055
 1602	 16.5800	  1.5051	   4.850	  96.115
 1603	 16.5800	  1.5089	   4.854	  96.175
 1604	 16.5800	  1.5151	   4.860	  96.235
 1605	 16.5800	  1.5189	   4.864	  96.295
 1606	 16.5800	  1.5251	   4.870	  96.355
 1607	 16.5800	  1.5289	   4.874	  96.415
 1608	 16.5800	  1.5351	   4.880	  96.475
 1609	 16.5800	  1.5401	   4.885	  96.535
 1610	 16.5800	  1.5451	   4.890	  96.595
 1611	 16.5800	  1.5501	   4.895	  96.655
 1612	 16.5800	  1.5551	   4.900	  96.715
 1613	 16.5800	  1.5589	   4.904	  96.775
 1614	 16.5800	  1.5639	   4.909	  96.835
 1615	 16.5800	  1.5689	   4.914	  96.895
 1616	 16.5800	  1.5739	   4.919	  96.955
 1617	 16.5800	  1.5789	   4.924	  97.015
 1618	 16.5800	  1.5839	   4.929	  97.075
 1619	 16.5800	  1.5889	   4.934	  97.135
 1620	 16.5800	  1.5939	   4.939	  97.195
 1621	 16.5800	  1.5989	   4.944	  97.255
 1622	 16.5800	  1.6039	   4.949	  97.315
 1623	 16.5800	  1.6089	   4.954	  97.375
 1624	 16.5800	  1.6139	   4.959	  97.435
 1625	 16.5800	  1.6189	   4.964	  97.495
 1626	 16.5800	  1.6239	   4.969	  97.555
 1627	 16.5800	  1.6289	   4.974	  97.615
 1628	 16.5800	  1.6339	   4.979	  97.675
 1629	 16.5800	  1.6389	   4.984	  97.735
 1630	 16.5800	  1.6439	   4.989	  97.795
 1631	 16.5800	  1.6489	   4.994	  97.855
 1632	 16.5800	  1.6539	   4.999	  97.915
 1633	 16.5800	  1.6589	   5.004	  97.975
 1634	 16.5800	  1.6639	   5.009	  98.035
 1635	 16.5800	  1.6689	   5.014	  98.095
 1636	 16.5800	  1.6739	   5.019	  98.155
 1637	 16.5800	  1.6789	   5.024	  98.215
 1638	 16.5800	  1.6839	   5.029	  98.275
 1639	 16.5800	  1.6889	   5.034	  98.335
 1640	 16.5800	  1.6939	   5.039	  98.395
 1641	 16.5800	  1.6989	   5.044	  98.455
 1642	 16.5800	  1.7039	   5.049	  98.515
 1643	 16.5800	  1.7089	   5.054	  98.575
 1644	 16.5600	  1.7139	   5.059	  98.635
 1645	 16.5600	  1.7189	   5.064	  98.695
 1646	 16.5600	  1.7239	   5.069	  98.755
 1647	 16.5600	  1.7289	   5.074	  98.815
 1648	 16.5600	  1.7339	   5.079	  98.875
 1649	 16.5600	  1.7389	   5.084	  98.935
 1650	 16.5600	  1.7439	   5.089	  98.995
 1651	 16.5600	  1.7489	   5.094	  99.055
 1652	 16.5600	  1.7539	   5.099	  99.115
 1653	 16.5600	  1.7589	   5.104	  99.175
 1654	 16.5600	  1.7639	   5.109	  99.235
 1655	 16.5600	  1.7689	   5.114	  99.295
 1656	 16.5400	  1.7739	   5.119	  99.355
 1657	 16.5600	  1.7789	   5.124	  99.415
 1658	 16.5400	  1.7851	   5.130	  99.475
 1659	 16.5400	  1.7889	   5.134	  99.535
 1660	 16.5400	  1.7939	   5.139	  99.595
 1661	 16.5400	  1.7989	   5.144	  99.655
 1662	 16.5400	  1.8051	   5.150	  99.715
 1663	 16.5400	  1.8089	   5.154	  99.775
 1664	 16.5400	  1.8151	   5.160	  99.835
 1665	 16.5400	  1.8189	   5.164	  99.895
 1666	 16.5400	  1.8251	   5.170	  99.955
 1667	 16.5400	  1.8289	   5.174	 100.015
 1668	 16.5400	  1.8351	   5.180	 100.075
 1669	 16.5400	  1.8389	   5.184	 100.135
 1670	 16.5200	  1.8451	   5.190	 100.195
 1671	 16.5200	  1.8489	   5.194	 100.255
 1672	 16.5200	  1.8551	   5.200	 100.315
 1673	 16.5200	  1.8589	   5.204	 100.375
 1674	 16.5200	  1.8651	   5.210	 100.435
 1675	 16.5200	  1.8689	   5.214	 100.495
 1676	 16.5200	  1.8751	   5.220	 100.555
 1677	 16.5200	  1.8801	   5.225	 100.615
 1678	 16.5200	  1.8851	   5.230	 100.675
 1679	 16.5200	  1.8901	   5.235	 100.735
 1680	 16.5200	  1.8951	   5.240	 100.795
 1681	 16.5200	  1.9001	   5.245	 100.855
 1682	 16.5200	  1.9051	   5.250	 100.915
 1683	 16.5200	  1.9101	   5.255	 100.975
 1684	 16.5200	  1.9151	   5.260	 101.035
 1685	 16.5200	  1.9189	   5.264	 101.095
 1686	 16.5200	  1.9251	   5.270	 101.155
 1687	 16.5200	  1.9301	   5.275	 101.215
 1688	 16.5200	  1.9339	   5.279	 101.275
 1689	 16.5200	  1.9389	   5.284	 101.335
 1690	 16.5200	  1.9439	   5.289	 101.395
 1691	 16.5200	  1.9489	   5.294	 101.455
 1692	 16.5200	  1.9551	   5.300	 101.515
 1693	 16.5200	  1.9589	   5.304	 101.575
 1694	 16.5200	  1.9651	   5.310	 101.635
 1695	 16.5200	  1.9689	   5.314	 101.695
 1696	 16.5200	  1.9751	   5.320	 101.755
 1697	 16.5200	  1.9789	   5.324	 101.815
 1698	 16.5200	  1.9851	   5.330	 101.875
 1699	 16.5200	  1.9901	   5.335	 101.935
 1700	 16.5400	  1.9951	   5.340	 101.995
 1701	 16.5400	  2.0001	   5.345	 102.055
 1702	 16.5400	  2.0051	   5.350	 102.115
 1703	 16.5400	  2.0101	   5.355	 102.175
 1704	 16.5400	  2.0151	   5.360	 102.235
 1705	 16.5400	  2.0201	   5.365	 102.295
 1706	 16.5400	  2.0251	   5.370	 102.355
 1707	 16.5400	  2.0301	   5.375	 102.415
 1708	 16.5400	  2.0351	   5.380	 102.475
 1709	 16.5400	  2.0401	   5.385	 102.535
 1710	 16.5400	  2.0451	   5.390	 102.595
 1711	 16.5400	  2.0501	   5.395	 102.655
 1712	 16.5400	  2.0551	   5.400	 102.715
 1713	 16.5400	  2.0601	   5.405	 102.775
 1714	 16.5400	  2.0651	   5.410	 102.835
 1715	 16.5400	  2.0701	   5.415	 102.895
 1716	 16.5400	  2.0751	   5.420	 102.955
 1717	 16.5400	  2.0801	   5.425	 103.015
 1718	 16.5400	  2.0851	   5.430	 103.075
 1719	 16.5600	  2.0901	   5.435	 103.135
 1720	 16.5400	  2.0951	   5.440	 103.195
 1721	 16.5600	  2.1001	   5.445	 103.255
 1722	 16.5600	  2.1051	   5.450	 103.315
 1723	 16.5600	  2.1101	   5.455	 103.375
 1724	 16.5600	  2.1151	   5.460	 103.435
 1725	 16.5600	  2.1201	   5.465	 103.495
 1726	 16.5600	  2.1251	   5.470	 103.555
 1727	 16.5600	  2.1301	   5.475	 103.615
 1728	 16.5600	  2.1351	   5.480	 103.675
 1729	 16.5600	  2.1401	   5.485	 103.735
 1730	 16.5600	  2.1451	   5.490	 103.795
 1731	 16.5600	  2.1501	   5.495	 103.855
 1732	 16.5600	  2.1551	   5.500	 103.915
 1733	 16.5600	  2.1601	   5.505	 103.975
 1734	 16.5600	  2.1651	   5.510	 104.035
 1735	 16.5600	  2.1701	   5.515	 104.095
 1736	 16.5600	  2.1751	   5.520	 104.155
 1737	 16.5600	  2.1801	   5.525	 104.215
 1738	 16.5600	  2.1851	   5.530	 104.275
 1739	 16.5600	  2.1901	   5.535	 104.335
 1740	 16.5800	  2.1951	   5.540	 104.395
 1741	 16.5600	  2.2001	   5.545	 104.455
 1742	 16.5800	  2.2051	   5.550	 104.515
 1743	 16.5800	  2.2101	   5.555	 104.575
 1744	 16.5800	  2.2151	   5.560	 104.635
 1745	 16.5800	  2.2201	   5.565	 104.695
 1746	 16.5800	  2.2251	   5.570	 104.755
 1747	 16.5800	  2.2301	   5.575	 104.815
 1748	 16.5800	  2.2351	   5.580	 104.875
 1749	 16.5800	  2.2401	   5.585	 104.935
 1750	 16.5800	  2.2451	   5.590	 104.995
 1751	 16.5800	  2.2501	   5.595	 105.055
 1752	 16.5800	  2.2564	   5.601	 105.115
 1753	 16.5800	  2.2601	   5.605	 105.175
 1754	 16.5800	  2.2664	   5.611	 105.235
 1755	 16.5800	  2.2714	   5.616	 105.295
 1756	 16.5800	  2.2764	   5.621	 105.355
 1757	 16.5800	  2.2814	   5.626	 105.415
 1758	 16.5800	  2.2864	   5.631	 105.475
 1759	 16.5800	  2.2914	   5.636	 105.535
 1760	 16.5800	  2.2964	   5.641	 105.595
 1761	 16.5800	  2.3014	   5.646	 105.655
 1762	 16.6000	  2.3064	   5.651	 105.715
 1763	 16.5800	  2.3114	   5.656	 105.775
 1764	 16.6000	  2.3164	   5.661	 105.835
 1765	 16.6000	  2.3214	   5.666	 105.895
 1766	 16.6000	  2.3264	   5.671	 105.955
 1767	 16.6000	  2.3314	   5.676	 106.015
 1768	 16.6000	  2.3364	   5.681	 106.075
 1769	 16.6000	  2.3414	   5.686	 106.135
 1770	 16.6000	  2.3464	   5.691	 106.195
 1771	 16.6000	  2.3514	   5.696	 106.255
 1772	 16.6000	  2.3564	   5.701	 106.315
 1773	 16.6000	  2.3614	   5.706	 106.375
 1774	 16.6000	  2.3664	   5.711	 106.435
 1775	 16.6000	  2.3714	   5.716	 106.495
 1776	 16.6000	  2.3764	   5.721	 106.555
 1777	 16.6000	  2.3814	   5.726	 106.615
 1778	 16.6000	  2.3864	   5.731	 106.675
 1779	 16.6000	  2.3914	   5.736	 106.735
 1780	 16.6000	  2.3964	   5.741	 106.795
 1781	 16.6000	  2.4014	   5.746	 106.855
 1782	 16.6000	  2.4064	   5.751	 106.915
 1783	 16.6000	  2.4114	   5.756	 106.975
 1784	 16.6000	  2.4164	   5.761	 107.035
 1785	 16.6000	  2.4214	   5.766	 107.095
 1786	 16.6000	  2.4264	   5.771	 107.155
 1787	 16.6000	  2.4301	   5.775	 107.215
 1788	 16.6000	  2.4364	   5.781	 107.275
 1789	 16.6000	  2.4401	   5.785	 107.335
 1790	 16.6000	  2.4464	   5.791	 107.395
 1791	 16.6000	  2.4501	   5.795	 107.455
 1792	 16.6000	  2.4564	   5.801	 107.515
 1793	 16.6000	  2.4614	   5.806	 107.575
 1794	 16.6200	  2.4651	   5.810	 107.635
 1795	 16.6200	  2.4714	   5.816	 107.695
 1796	 16.6000	  2.4764	   5.821	 107.755
 1797	 16.6200	  2.4814	   5.826	 107.815
 1798	 16.6200	  2.4864	   5.831	 107.875
 1799	 16.6200	  2.4914	   5.836	 107.935
 1800	 16.6200	  2.4964	   5.841	 107.995
 1801	 16.6200	  2.5014	   5.846	 108.055
 1802	 16.6200	  2.5064	   5.851	 108.115
 1803	 16.6200	  2.5114	   5.856	 108.175
 1804	 16.6200	  2.5164	   5.861	 108.235
 1805	 16.6200	  2.5214	   5.866	 108.295
 1806	 16.6200	  2.5264	   5.871	 108.355
 1807	 16.6200	  2.5314	   5.876	 108.415
 1808	 16.6200	  2.5364	   5.881	 108.475
 1809	 16.6200	  2.5414	   5.886	 108.535
 1810	 16.6200	  2.5464	   5.891	 108.595
 1811	 16.6200	  2.5514	   5.896	 108.655
 1812	 16.6200	  2.5564	   5.901	 108.715
 1813	 16.6200	  2.5614	   5.906	 108.775
 1814	 16.6200	  2.5664	   5.911	 108.835
 1815	 16.6200	  2.5714	   5.916	 108.895
 1816	 16.6200	  2.5764	   5.921	 108.955
 1817	 16.6200	  2.5814	   5.926	 109.015
 1818	 16.6200	  2.5864	   5.931	 109.075
 1819	 16.6200	  2.5914	   5.936	 109.135
 1820	 16.6200	  2.5964	   5.941	 109.195
 1821	 16.6200	  2.6014	   5.946	 109.255
 1822	 16.6200	  2.6064	   5.951	 109.315
 1823	 16.6200	  2.6114	   5.956	 109.375
 1824	 16.6200	  2.6164	   5.961	 109.435
 1825	 16.6200	  2.6214	   5.966	 109.495
 1826	 16.6200	  2.6264	   5.971	 109.555
 1827	 16.6200	  2.6314	   5.976	 109.615
 1828	 16.6200	  2.6364	   5.981	 109.675
 1829	 16.6200	  2.6414	   5.986	 109.735
 1830	 16.6200	  2.6464	   5.991	 109.795
 1831	 16.6200	  2.6514	   5.996	 109.855
 1832	 16.6200	  2.6564	   6.001	 109.915
 1833	 16.6200	  2.6614	   6.006	 109.975
 1834	 16.6200	  2.6664	   6.011	 110.035
 1835	 16.6200	  2.6714	   6.016	 110.095
 1836	 16.6200	  2.6764	   6.021	 110.155
 1837	 16.6200	  2.6814	   6.026	 110.215
 1838	 16.6200	  2.6864	   6.031	 110.275
 1839	 16.6200	  2.6914	   6.036	 110.335
 1840	 16.6200	  2.6964	   6.041	 110.395
 1841	 16.6200	  2.7014	   6.046	 110.455
 1842	 16.6200	  2.7064	   6.051	 110.515
 1843	 16.6200	  2.7114	   6.056	 110.575
 1844	 16.6200	  2.7164	   6.061	 110.635
 1845	 16.6200	  2.7214	   6.066	 110.695
 1846	 16.6200	  2.7264	   6.071	 110.755
 1847	 16.6200	  2.7314	   6.076	 110.815
 1848	 16.6200	  2.7364	   6.081	 110.875
 1849	 16.6200	  2.7414	   6.086	 110.935
 1850	 16.6200	  2.7464	   6.091	 110.995
 1851	 16.6200	  2.7514	   6.096	 111.055
 1852	 16.6200	  2.7564	   6.101	 111.115
 1853	 16.6200	  2.7614	   6.106	 111.175
 1854	 16.6200	  2.7664	   6.111	 111.235
 1855	 16.6200	  2.7714	   6.116	 111.295
 1856	 16.6200	  2.7764	   6.121	 111.355
 1857	 16.6200	  2.7814	   6.126	 111.415
 1858	 16.6200	  2.7864	   6.131	 111.475
 1859	 16.6200	  2.7914	   6.136	 111.535
 1860	 16.6200	  2.7964	   6.141	 111.595
 1861	 16.6200	  2.8014	   6.146	 111.655
 1862	 16.6200	  2.8064	   6.151	 111.715
 1863	 16.6200	  2.8114	   6.156	 111.775
 1864	 16.6200	  2.8176	   6.162	 111.835
 1865	 16.6200	  2.8214	   6.166	 111.895
 1866	 16.6200	  2.8276	   6.172	 111.955
 1867	 16.6200	  2.8326	   6.177	 112.015
 1868	 16.6200	  2.8376	   6.182	 112.075
 1869	 16.6200	  2.8426	   6.188	 112.135
 1870	 16.6200	  2.8476	   6.192	 112.195
 1871	 16.6200	  2.8526	   6.197	 112.255
 1872	 16.6200	  2.8576	   6.202	 112.315
 1873	 16.6200	  2.8614	   6.206	 112.375
 1874	 16.6200	  2.8676	   6.213	 112.435
 1875	 16.6200	  2.8726	   6.217	 112.495
 1876	 16.6200	  2.8776	   6.222	 112.555
 1877	 16.6000	  2.8826	   6.227	 112.615
 1878	 16.6000	  2.8876	   6.233	 112.675
 1879	 16.6000	  2.8926	   6.237	 112.735
 1880	 16.6000	  2.8976	   6.242	 112.795
 1881	 16.6000	  2.9026	   6.247	 112.855
 1882	 16.6000	  2.9076	   6.253	 112.915
 1883	 16.6000	  2.9126	   6.257	 112.975
 1884	 16.6000	  2.9176	   6.262	 113.035
 1885	 16.6000	  2.9226	   6.267	 113.095
 1886	 16.6000	  2.9276	   6.273	 113.155
 1887	 16.6000	  2.9326	   6.277	 113.215
 1888	 16.6000	  2.9376	   6.282	 113.275
 1889	 16.6000	  2.9426	   6.287	 113.335
 1890	 16.6000	  2.9476	   6.293	 113.395
 1891	 16.6000	  2.9526	   6.297	 113.455
 1892	 16.6000	  2.9576	   6.302	 113.515
 1893	 16.6000	  2.9626	   6.307	 113.575
 1894	 16.6000	  2.9676	   6.312	 113.635
 1895	 16.6000	  2.9726	   6.317	 113.695
 1896	 16.6000	  2.9776	   6.322	 113.755
 1897	 16.6000	  2.9826	   6.327	 113.815
 1898	 16.6000	  2.9876	   6.332	 113.875
 1899	 16.6000	  2.9926	   6.338	 113.935
 1900	 16.6000	  2.9976	   6.342	 113.995
 1901	 16.6000	  3.0026	   6.347	 114.055
 1902	 16.6000	  3.0076	   6.352	 114.115
 1903	 16.6000	  3.0126	   6.358	 114.175
 1904	 16.5800	  3.0176	   6.362	 114.235
 1905	 16.6000	  3.0226	   6.367	 114.295
 1906	 16.5800	  3.0276	   6.372	 114.355
 1907	 16.5800	  3.0326	   6.378	 114.415
 1908	 16.5800	  3.0376	   6.382	 114.475
 1909	 16.5800	  3.0426	   6.387	 114.535
 1910	 16.5800	  3.0476	   6.392	 114.595
 1911	 16.5800	  3.0526	   6.398	 114.655
 1912	 16.5800	  3.0576	   6.402	 114.715
 1913	 16.5800	  3.0626	   6.407	 114.775
 1914	 16.5800	  3.0676	   6.412	 114.835
 1915	 16.5800	  3.0726	   6.418	 114.895
 1916	 16.5800	  3.0776	   6.422	 114.955
 1917	 16.5800	  3.0826	   6.427	 115.015
 1918	 16.5800	  3.0876	   6.432	 115.075
 1919	 16.5800	  3.0926	   6.438	 115.135
 1920	 16.5800	  3.0976	   6.442	 115.195
 1921	 16.5800	  3.1026	   6.447	 115.255
 1922	 16.5600	  3.1076	   6.452	 115.315
 1923	 16.5800	  3.1126	   6.457	 115.375
 1924	 16.5600	  3.1176	   6.462	 115.435
 1925	 16.5600	  3.1226	   6.467	 115.495
 1926	 16.5600	  3.1276	   6.472	 115.555
 1927	 16.5600	  3.1326	   6.477	 115.615
 1928	 16.5600	  3.1376	   6.483	 115.675
 1929	 16.5600	  3.1426	   6.487	 115.735
 1930	 16.5600	  3.1476	   6.492	 115.795
 1931	 16.5600	  3.1526	   6.497	 115.855
 1932	 16.5600	  3.1576	   6.503	 115.915
 1933	 16.5600	  3.1626	   6.507	 115.975
 1934	 16.5600	  3.1676	   6.512	 116.035
 1935	 16.5600	  3.1726	   6.517	 116.095
 1936	 16.5600	  3.1776	   6.523	 116.155
 1937	 16.5400	  3.1826	   6.527	 116.215
 1938	 16.5400	  3.1876	   6.532	 116.275
 1939	 16.5400	  3.1926	   6.537	 116.335
 1940	 16.5400	  3.1976	   6.543	 116.395
 1941	 16.5400	  3.2026	   6.547	 116.455
 1942	 16.5400	  3.2076	   6.552	 116.515
 1943	 16.5400	  3.2126	   6.557	 116.575
 1944	 16.5400	  3.2176	   6.562	 116.635
 1945	 16.5400	  3.2226	   6.567	 116.695
 1946	 16.5400	  3.2276	   6.572	 116.755
 1947	 16.5400	  3.2339	   6.579	 116.815
 1948	 16.5400	  3.2376	   6.582	 116.875
 1949	 16.5200	  3.2439	   6.589	 116.935
 1950	 16.5200	  3.2476	   6.592	 116.995
 1951	 16.5200	  3.2539	   6.599	 117.055
 1952	 16.5200	  3.2589	   6.604	 117.115
 1953	 16.5200	  3.2639	   6.609	 117.175
 1954	 16.5200	  3.2689	   6.614	 117.235
 1955	 16.5200	  3.2739	   6.619	 117.295
 1956	 16.5200	  3.2789	   6.624	 117.355
 1957	 16.5200	  3.2839	   6.629	 117.415
 1958	 16.5000	  3.2889	   6.634	 117.475
 1959	 16.5000	  3.2939	   6.639	 117.535
 1960	 16.5000	  3.2976	   6.642	 117.595
 1961	 16.5000	  3.3039	   6.649	 117.655
 1962	 16.5000	  3.3076	   6.652	 117.715
 1963	 16.5000	  3.3139	   6.659	 117.775
 1964	 16.5000	  3.3189	   6.664	 117.835
 1965	 16.5000	  3.3239	   6.669	 117.895
 1966	 16.5000	  3.3289	   6.674	 117.955
 1967	 16.4800	  3.3339	   6.679	 118.015
 1968	 16.4800	  3.3389	   6.684	 118.075
 1969	 16.4800	  3.3439	   6.689	 118.135
 1970	 16.4800	  3.3489	   6.694	 118.195
 1971	 16.4800	  3.3539	   6.699	 118.255
 1972	 16.4800	  3.3589	   6.704	 118.315
 1973	 16.4800	  3.3639	   6.709	 118.375
 1974	 16.4800	  3.3689	   6.714	 118.435
 1975	 16.4800	  3.3739	   6.719	 118.495
 1976	 16.4600	  3.3789	   6.724	 118.555
 1977	 16.4600	  3.3839	   6.729	 118.615
 1978	 16.4600	  3.3889	   6.734	 118.675
 1979	 16.4600	  3.3939	   6.739	 118.735
 1980	 16.4600	  3.3989	   6.744	 118.795
 1981	 16.4600	  3.4039	   6.749	 118.855
 1982	 16.4600	  3.4089	   6.754	 118.915
 1983	 16.4600	  3.4139	   6.759	 118.975
 1984	 16.4400	  3.4189	   6.764	 119.035
 1985	 16.4400	  3.4239	   6.769	 119.095
 1986	 16.4400	  3.4289	   6.774	 119.155
 1987	 16.4400	  3.4339	   6.779	 119.215
 1988	 16.4400	  3.4389	   6.784	 119.275
 1989	 16.4400	  3.4439	   6.789	 119.335
 1990	 16.4200	  3.4489	   6.794	 119.395
 1991	 16.4200	  3.4539	   6.799	 119.455
 1992	 16.4200	  3.4589	   6.804	 119.515
 1993	 16.4200	  3.4639	   6.809	 119.575
 1994	 16.4200	  3.4689	   6.814	 119.635
 1995	 16.4200	  3.4739	   6.819	 119.695
 1996	 16.4200	  3.4789	   6.824	 119.755
 1997	 16.4200	  3.4839	   6.829	 119.815
 1998	 16.4000	  3.4889	   6.834	 119.875
 1999	 16.4000	  3.4939	   6.839	 119.935
 2000	 16.4000	  3.4989	   6.844	 119.995
 2001	 16.4000	  3.5039	   6.849	 120.055
 2002	 16.4000	  3.5089	   6.854	 120.115
 2003	 16.4000	  3.5139	   6.859	 120.175
 2004	 16.3800	  3.5189	   6.864	 120.235
 2005	 16.3800	  3.5239	   6.869	 120.295
 2006	 16.3800	  3.5289	   6.874	 120.355
 2007	 16.3800	  3.5339	   6.879	 120.415
 2008	 16.3800	  3.5389	   6.884	 120.475
 2009	 16.3600	  3.5439	   6.889	 120.535
 2010	 16.3600	  3.5489	   6.894	 120.595
 2011	 16.3600	  3.5539	   6.899	 120.655
 2012	 16.3600	  3.5589	   6.904	 120.715
 2013	 16.3600	  3.5639	   6.909	 120.775
 2014	 16.3400	  3.5689	   6.914	 120.835
 2015	 16.3400	  3.5739	   6.919	 120.895
 2016	 16.3400	  3.5789	   6.924	 120.955
 2017	 16.3400	  3.5839	   6.929	 121.015
 2018	 16.3400	  3.5889	   6.934	 121.075
 2019	 16.3400	  3.5939	   6.939	 121.135
 2020	 16.3400	  3.5989	   6.944	 121.195
 2021	 16.3200	  3.6039	   6.949	 121.255
 2022	 16.3200	  3.6089	   6.954	 121.315
 2023	 16.3200	  3.6139	   6.959	 121.375
 2024	 16.3200	  3.6189	   6.964	 121.435
 2025	 16.3200	  3.6239	   6.969	 121.495
 2026	 16.3000	  3.6289	   6.974	 121.555
 2027	 16.3000	  3.6339	   6.979	 121.615
 2028	 16.3000	  3.6389	   6.984	 121.675
 2029	 16.3000	  3.6439	   6.989	 121.735
 2030	 16.3000	  3.6489	   6.994	 121.795
 2031	 16.2800	  3.6551	   7.000	 121.855
 2032	 16.2800	  3.6589	   7.004	 121.915
 2033	 16.2800	  3.6651	   7.010	 121.975
 2034	 16.2800	  3.6689	   7.014	 122.035
 2035	 16.2600	  3.6751	   7.020	 122.095
 2036	 16.2600	  3.6789	   7.024	 122.155
 2037	 16.2600	  3.6851	   7.030	 122.215
 2038	 16.2600	  3.6889	   7.034	 122.275
 2039	 16.2600	  3.6951	   7.040	 122.335
 2040	 16.2600	  3.6989	   7.044	 122.395
 2041	 16.2400	  3.7051	   7.050	 122.455
 2042	 16.2400	  3.7101	   7.055	 122.515
 2043	 16.2400	  3.7151	   7.060	 122.575
 2044	 16.2400	  3.7189	   7.064	 122.635
 2045	 16.2200	  3.7251	   7.070	 122.695
 2046	 16.2200	  3.7301	   7.075	 122.755
 2047	 16.2200	  3.7351	   7.080	 122.815
 2048	 16.2200	  3.7401	   7.085	 122.875
 2049	 16.2000	  3.7451	   7.090	 122.935
 2050	 16.2000	  3.7501	   7.095	 122.995
 2051	 16.2000	  3.7551	   7.100	 123.055
 2052	 16.2000	  3.7601	   7.105	 123.115
 2053	 16.2000	  3.7651	   7.110	 123.175
 2054	 16.1800	  3.7701	   7.115	 123.235
 2055	 16.1800	  3.7751	   7.120	 123.295
 2056	 16.1800	  3.7801	   7.125	 123.355
 2057	 16.1800	  3.7851	   7.130	 123.415
 2058	 16.1600	  3.7901	   7.135	 123.475
 2059	 16.1600	  3.7951	   7.140	 123.535
 2060	 16.1600	  3.8001	   7.145	 123.595
 2061	 16.1600	  3.8051	   7.150	 123.655
 2062	 16.1400	  3.8101	   7.155	 123.715
 2063	 16.1400	  3.8151	   7.160	 123.775
 2064	 16.1400	  3.8201	   7.165	 123.835
 2065	 16.1400	  3.8251	   7.170	 123.895
 2066	 16.1200	  3.8301	   7.175	 123.955
 2067	 16.1200	  3.8351	   7.180	 124.015
 2068	 16.1200	  3.8401	   7.185	 124.075
 2069	 16.1200	  3.8451	   7.190	 124.135
 2070	 16.1200	  3.8501	   7.195	 124.195
 2071	 16.1000	  3.8551	   7.200	 124.255
 2072	 16.1000	  3.8601	   7.205	 124.315
 2073	 16.1000	  3.8651	   7.210	 124.375
 2074	 16.1000	  3.8701	   7.215	 124.435
 2075	 16.0800	  3.8751	   7.220	 124.495
 2076	 16.0800	  3.8801	   7.225	 124.555
 2077	 16.0800	  3.8851	   7.230	 124.615
 2078	 16.0600	  3.8901	   7.235	 124.675
 2079	 16.0600	  3.8951	   7.240	 124.735
 2080	 16.0600	  3.9001	   7.245	 124.795
 2081	 16.0600	  3.9051	   7.250	 124.855
 2082	 16.0400	  3.9101	   7.255	 124.915
 2083	 16.0400	  3.9151	   7.260	 124.975
 2084	 16.0400	  3.9201	   7.265	 125.035
 2085	 16.0400	  3.9251	   7.270	 125.095
 2086	 16.0200	  3.9301	   7.275	 125.155
 2087	 16.0200	  3.9351	   7.280	 125.215
 2088	 16.0200	  3.9401	   7.285	 125.275
 2089	 16.0200	  3.9464	   7.291	 125.335
 2090	 16.0000	  3.9501	   7.295	 125.395
 2091	 16.0000	  3.9564	   7.301	 125.455
 2092	 16.0000	  3.9601	   7.305	 125.515
 2093	 15.9800	  3.9651	   7.310	 125.575
 2094	 15.9800	  3.9701	   7.315	 125.635
 2095	 15.9800	  3.9751	   7.320	 125.695
 2096	 15.9800	  3.9814	   7.326	 125.755
 2097	 15.9600	  3.9864	   7.331	 125.815
 2098	 15.9600	  3.9901	   7.335	 125.875
 2099	 15.9600	  3.9964	   7.341	 125.935
 2100	 15.9400	  4.0001	   7.345	 125.995
 2101	 15.9400	  4.0051	   7.350	 126.055
 2102	 15.9400	  4.0101	   7.355	 126.115
 2103	 15.9400	  4.0151	   7.360	 126.175
 2104	 15.9200	  4.0201	   7.365	 126.235
 2105	 15.9200	  4.0251	   7.370	 126.295
 2106	 15.9200	  4.0301	   7.375	 126.355
 2107	 15.9200	  4.0351	   7.380	 126.415
 2108	 15.9000	  4.0401	   7.385	 126.475
 2109	 15.9000	  4.0451	   7.390	 126.535
 2110	 15.9000	  4.0501	   7.395	 126.595
 2111	 15.8800	  4.0551	   7.400	 126.655
 2112	 15.8800	  4.0601	   7.405	 126.715
 2113	 15.8800	  4.0651	   7.410	 126.775
 2114	 15.8600	  4.0701	   7.415	 126.835
 2115	 15.8600	  4.0751	   7.420	 126.895
 2116	 15.8600	  4.0801	   7.425	 126.955
 2117	 15.8600	  4.0851	   7.430	 127.015
 2118	 15.8400	  4.0901	   7.435	 127.075
 2119	 15.8400	  4.0951	   7.440	 127.135
 2120	 15.8400	  4.1001	   7.445	 127.195
 2121	 15.8200	  4.1051	   7.450	 127.255
 2122	 15.8200	  4.1101	   7.455	 127.315
 2123	 15.8200	  4.1151	   7.460	 127.375
 2124	 15.8000	  4.1201	   7.465	 127.435
 2125	 15.8000	  4.1251	   7.470	 127.495
 2126	 15.8000	  4.1301	   7.475	 127.555
 2127	 15.7800	  4.1351	   7.480	 127.615
 2128	 15.7800	  4.1401	   7.485	 127.675
 2129	 15.7800	  4.1451	   7.490	 127.735
 2130	 15.7800	  4.1501	   7.495	 127.795
 2131	 15.7600	  4.1564	   7.501	 127.855
 2132	 15.7600	  4.1614	   7.506	 127.915
 2133	 15.7600	  4.1664	   7.511	 127.975
 2134	 15.7400	  4.1714	   7.516	 128.035
 2135	 15.7400	  4.1764	   7.521	 128.095
 2136	 15.7400	  4.1814	   7.526	 128.155
 2137	 15.7200	  4.1864	   7.531	 128.215
 2138	 15.7200	  4.1914	   7.536	 128.275
 2139	 15.7200	  4.1964	   7.541	 128.335
 2140	 15.7000	  4.2014	   7.546	 128.395
 2141	 15.7000	  4.2064	   7.551	 128.455
 2142	 15.7000	  4.2114	   7.556	 128.515
 2143	 15.7000	  4.2164	   7.561	 128.575
 2144	 15.6800	  4.2214	   7.566	 128.635
 2145	 15.6800	  4.2264	   7.571	 128.695
 2146	 15.6800	  4.2314	   7.576	 128.755
 2147	 15.6600	  4.2364	   7.581	 128.815
 2148	 15.6600	  4.2414	   7.586	 128.875
 2149	 15.6600	  4.2464	   7.591	 128.935
 2150	 15.6400	  4.2514	   7.596	 128.995
 2151	 15.6400	  4.2564	   7.601	 129.055
 2152	 15.6400	  4.2614	   7.606	 129.115
 2153	 15.6200	  4.2664	   7.611	 129.175
 2154	 15.6200	  4.2714	   7.616	 129.235
 2155	 15.6200	  4.2764	   7.621	 129.295
 2156	 15.6000	  4.2814	   7.626	 129.355
 2157	 15.6000	  4.2864	   7.631	 129.415
 2158	 15.6000	  4.2914	   7.636	 129.475
 2159	 15.5800	  4.2964	   7.641	 129.535
 2160	 15.5800	  4.3014	   7.646	 129.595
 2161	 15.5800	  4.3064	   7.651	 129.655
 2162	 15.5600	  4.3114	   7.656	 129.715
 2163	 15.5600	  4.3164	   7.661	 129.775
 2164	 15.5600	  4.3214	   7.666	 129.835
 2165	 15.5400	  4.3264	   7.671	 129.895
 2166	 15.5400	  4.3314	   7.676	 129.955
 2167	 15.5400	  4.3364	   7.681	 130.015
 2168	 15.5200	  4.3414	   7.686	 130.075
 2169	 15.5200	  4.3464	   7.691	 130.135
 2170	 15.5000	  4.3514	   7.696	 130.195
 2171	 15.5000	  4.3564	   7.701	 130.255
 2172	 15.5000	  4.3614	   7.706	 130.315
 2173	 15.5000	  4.3664	   7.711	 130.375
 2174	 15.4800	  4.3714	   7.716	 130.435
 2175	 15.4800	  4.3764	   7.721	 130.495
 2176	 15.4600	  4.3814	   7.726	 130.555
 2177	 15.4600	  4.3864	   7.731	 130.615
 2178	 15.4600	  4.3914	   7.736	 130.675
 2179	 15.4400	  4.3964	   7.741	 130.735
 2180	 15.4400	  4.4014	   7.746	 130.795
 2181	 15.4400	  4.4064	   7.751	 130.855
 2182	 15.4200	  4.4114	   7.756	 130.915
 2183	 15.4200	  4.4164	   7.761	 130.975
 2184	 15.4200	  4.4214	   7.766	 131.035
 2185	 15.4000	  4.4264	   7.771	 131.095
 2186	 15.4000	  4.4314	   7.776	 131.155
 2187	 15.4000	  4.4364	   7.781	 131.215
 2188	 15.3800	  4.4414	   7.786	 131.275
 2189	 15.3800	  4.4464	   7.791	 131.335
 2190	 15.3800	  4.4514	   7.796	 131.395
 2191	 15.3600	  4.4576	   7.802	 131.455
 2192	 15.3600	  4.4626	   7.807	 131.515
 2193	 15.3400	  4.4676	   7.812	 131.575
 2194	 15.3400	  4.4726	   7.817	 131.635
 2195	 15.3400	  4.4776	   7.822	 131.695
 2196	 15.3200	  4.4826	   7.827	 131.755
 2197	 15.3200	  4.4876	   7.832	 131.815
 2198	 15.3000	  4.4926	   7.837	 131.875
 2199	 15.3000	  4.4976	   7.842	 131.935
 2200	 15.3000	  4.5026	   7.847	 131.995
 2201	 15.3000	  4.5076	   7.852	 132.055
 2202	 15.2800	  4.5126	   7.857	 132.115
 2203	 15.2800	  4.5176	   7.862	 132.175
 2204	 15.2600	  4.5226	   7.867	 132.235
 2205	 15.2600	  4.5276	   7.872	 132.295
 2206	 15.2600	  4.5326	   7.878	 132.355
 2207	 15.2400	  4.5376	   7.882	 132.415
 2208	 15.2400	  4.5426	   7.887	 132.475
 2209	 15.2400	  4.5476	   7.892	 132.535
 2210	 15.2200	  4.5526	   7.898	 132.595
 2211	 15.2200	  4.5576	   7.902	 132.655
 2212	 15.2000	  4.5626	   7.907	 132.715
 2213	 15.2000	  4.5676	   7.912	 132.775
 2214	 15.2000	  4.5726	   7.918	 132.835
 2215	 15.1800	  4.5776	   7.922	 132.895
 2216	 15.1800	  4.5826	   7.927	 132.955
 2217	 15.1800	  4.5876	   7.932	 133.015
 2218	 15.1800	  4.5926	   7.938	 133.075
 2219	 15.1600	  4.5976	   7.942	 133.135
 2220	 15.1600	  4.6026	   7.947	 133.195
 2221	 15.1600	  4.6076	   7.952	 133.255
 2222	 15.1400	  4.6126	   7.957	 133.315
 2223	 15.1400	  4.6176	   7.962	 133.375
 2224	 15.1200	  4.6226	   7.967	 133.435
 2225	 15.1200	  4.6276	   7.972	 133.495
 2226	 15.1000	  4.6326	   7.977	 133.555
 2227	 15.1000	  4.6376	   7.982	 133.615
 2228	 15.1000	  4.6426	   7.987	 133.675
 2229	 15.0800	  4.6476	   7.992	 133.735
 2230	 15.0800	  4.6526	   7.997	 133.795
 2231	 15.0800	  4.6576	   8.002	 133.855
 2232	 15.0600	  4.6626	   8.007	 133.915
 2233	 15.0600	  4.6676	   8.012	 133.975
 2234	 15.0600	  4.6726	   8.017	 134.035
 2235	 15.0400	  4.6776	   8.023	 134.095
 2236	 15.0400	  4.6826	   8.028	 134.155
 2237	 15.0200	  4.6876	   8.033	 134.215
 2238	 15.0200	  4.6926	   8.037	 134.275
 2239	 15.0000	  4.6976	   8.042	 134.335
 2240	 15.0000	  4.7026	   8.047	 134.395
 2241	 15.0000	  4.7076	   8.052	 134.455
 2242	 14.9800	  4.7126	   8.057	 134.515
 2243	 14.9800	  4.7176	   8.062	 134.575
 2244	 14.9600	  4.7226	   8.068	 134.635
 2245	 14.9600	  4.7276	   8.073	 134.695
 2246	 14.9600	  4.7326	   8.077	 134.755
 2247	 14.9400	  4.7376	   8.082	 134.815
 2248	 14.9400	  4.7426	   8.087	 134.875
 2249	 14.9200	  4.7476	   8.092	 134.935
 2250	 14.9200	  4.7526	   8.097	 134.995
 2251	 14.9200	  4.7576	   8.102	 135.055
 2252	 14.9000	  4.7626	   8.108	 135.115
 2253	 14.9000	  4.7676	   8.113	 135.175
 2254	 14.8800	  4.7726	   8.117	 135.235
 2255	 14.8800	  4.7776	   8.122	 135.295
 2256	 14.8800	  4.7826	   8.127	 135.355
 2257	 14.8600	  4.7876	   8.132	 135.415
 2258	 14.8600	  4.7926	   8.137	 135.475
 2259	 14.8400	  4.7976	   8.142	 135.535
 2260	 14.8400	  4.8026	   8.148	 135.595
 2261	 14.8400	  4.8076	   8.153	 135.655
 2262	 14.8200	  4.8126	   8.158	 135.715
 2263	 14.8200	  4.8176	   8.162	 135.775
 2264	 14.8000	  4.8239	   8.169	 135.835
 2265	 14.8000	  4.8289	   8.174	 135.895
 2266	 14.8000	  4.8339	   8.179	 135.955
 2267	 14.7800	  4.8389	   8.184	 136.015
 2268	 14.7800	  4.8439	   8.189	 136.075
 2269	 14.7600	  4.8489	   8.194	 136.135
 2270	 14.7600	  4.8539	   8.199	 136.195
 2271	 14.7400	  4.8589	   8.204	 136.255
 2272	 14.7400	  4.8639	   8.209	 136.315
 2273	 14.7200	  4.8689	   8.214	 136.375
 2274	 14.7200	  4.8739	   8.219	 136.435
 2275	 14.7200	  4.8789	   8.224	 136.495
 2276	 14.7000	  4.8839	   8.229	 136.555
 2277	 14.7000	  4.8889	   8.234	 136.615
 2278	 14.6800	  4.8939	   8.239	 136.675
 2279	 14.6800	  4.8989	   8.244	 136.735
 2280	 14.6800	  4.9039	   8.249	 136.795
 2281	 14.6600	  4.9089	   8.254	 136.855
 2282	 14.6600	  4.9139	   8.259	 136.915
 2283	 14.6400	  4.9189	   8.264	 136.975
 2284	 14.6400	  4.9239	   8.269	 137.035
 2285	 14.6200	  4.9289	   8.274	 137.095
 2286	 14.6200	  4.9339	   8.279	 137.155
 2287	 14.6200	  4.9389	   8.284	 137.215
 2288	 14.6000	  4.9439	   8.289	 137.275
 2289	 14.6000	  4.9489	   8.294	 137.335
 2290	 14.5800	  4.9539	   8.299	 137.395
 2291	 14.5800	  4.9589	   8.304	 137.455
 2292	 14.5600	  4.9639	   8.309	 137.515
 2293	 14.5600	  4.9689	   8.314	 137.575
 2294	 14.5600	  4.9739	   8.319	 137.635
 2295	 14.5400	  4.9789	   8.324	 137.695
 2296	 14.5400	  4.9839	   8.329	 137.755
 2297	 14.5200	  4.9889	   8.334	 137.815
 2298	 14.5200	  4.9939	   8.339	 137.875
 2299	 14.5000	  4.9989	   8.344	 137.935
 2300	 14.5000	  5.0039	   8.349	 137.995
 2301	 14.4800	  5.0089	   8.354	 138.055
 2302	 14.4800	  5.0139	   8.359	 138.115
 2303	 14.4800	  5.0189	   8.364	 138.175
 2304	 14.4600	  5.0239	   8.369	 138.235
 2305	 14.4600	  5.0289	   8.374	 138.295
 2306	 14.4400	  5.0339	   8.379	 138.355
 2307	 14.4400	  5.0389	   8.384	 138.415
 2308	 14.4200	  5.0439	   8.389	 138.475
 2309	 14.4200	  5.0489	   8.394	 138.535
 2310	 14.4000	  5.0539	   8.399	 138.595
 2311	 14.4000	  5.0589	   8.404	 138.655
 2312	 14.3800	  5.0639	   8.409	 138.715
 2313	 14.3800	  5.0689	   8.414	 138.775
 2314	 14.3800	  5.0739	   8.419	 138.835
 2315	 14.3600	  5.0789	   8.424	 138.895
 2316	 14.3600	  5.0839	   8.429	 138.955
 2317	 14.3400	  5.0889	   8.434	 139.015
 2318	 14.3400	  5.0951	   8.440	 139.075
 2319	 14.3200	  5.0989	   8.444	 139.135
 2320	 14.3200	  5.1051	   8.450	 139.195
 2321	 14.3200	  5.1089	   8.454	 139.255
 2322	 14.3000	  5.1151	   8.460	 139.315
 2323	 14.3000	  5.1189	   8.464	 139.375
 2324	 14.2800	  5.1251	   8.470	 139.435
 2325	 14.2800	  5.1301	   8.475	 139.495
 2326	 14.2600	  5.1351	   8.480	 139.555
 2327	 14.2600	  5.1401	   8.485	 139.615
 2328	 14.2400	  5.1451	   8.490	 139.675
 2329	 14.2400	  5.1501	   8.495	 139.735
 2330	 14.2200	  5.1551	   8.500	 139.795
 2331	 14.2200	  5.1601	   8.505	 139.855
 2332	 14.2000	  5.1651	   8.510	 139.915
 2333	 14.2000	  5.1701	   8.515	 139.975
 2334	 14.1800	  5.1751	   8.520	 140.035
 2335	 14.1800	  5.1801	   8.525	 140.095
 2336	 14.1800	  5.1851	   8.530	 140.155
 2337	 14.1600	  5.1901	   8.535	 140.215
 2338	 14.1600	  5.1951	   8.540	 140.275
 2339	 14.1400	  5.2001	   8.545	 140.335
 2340	 14.1400	  5.2051	   8.550	 140.395
 2341	 14.1200	  5.2101	   8.555	 140.455
 2342	 14.1200	  5.2151	   8.560	 140.515
 2343	 14.1000	  5.2201	   8.565	 140.575
 2344	 14.1000	  5.2251	   8.570	 140.635
 2345	 14.0800	  5.2301	   8.575	 140.695
 2346	 14.0800	  5.2351	   8.580	 140.755
 2347	 14.0600	  5.2401	   8.585	 140.815
 2348	 14.0600	  5.2451	   8.590	 140.875
 2349	 14.0400	  5.2501	   8.595	 140.935
 2350	 14.0400	  5.2551	   8.600	 140.995
 2351	 14.0200	  5.2601	   8.605	 141.055
 2352	 14.0200	  5.2651	   8.610	 141.115
 2353	 14.0000	  5.2701	   8.615	 141.175
 2354	 14.0000	  5.2751	   8.620	 141.235
 2355	 13.9800	  5.2801	   8.625	 141.295
 2356	 13.9800	  5.2851	   8.630	 141.355
 2357	 13.9800	  5.2901	   8.635	 141.415
 2358	 13.9600	  5.2951	   8.640	 141.475
 2359	 13.9600	  5.3001	   8.645	 141.535
 2360	 13.9400	  5.3051	   8.650	 141.595
 2361	 13.9200	  5.3101	   8.655	 141.655
 2362	 13.9200	  5.3151	   8.660	 141.715
 2363	 13.9000	  5.3201	   8.665	 141.775
 2364	 13.9000	  5.3251	   8.670	 141.835
 2365	 13.9000	  5.3301	   8.675	 141.895
 2366	 13.8800	  5.3351	   8.680	 141.955
 2367	 13.8800	  5.3401	   8.685	 142.015
 2368	 13.8600	  5.3451	   8.690	 142.075
 2369	 13.8400	  5.3501	   8.695	 142.135
 2370	 13.8400	  5.3551	   8.700	 142.195
 2371	 13.8200	  5.3601	   8.705	 142.255
 2372	 13.8200	  5.3651	   8.710	 142.315
 2373	 13.8200	  5.3701	   8.715	 142.375
 2374	 13.8000	  5.3751	   8.720	 142.435
 2375	 13.8000	  5.3801	   8.725	 142.495
 2376	 13.7800	  5.3851	   8.730	 142.555
 2377	 13.7800	  5.3901	   8.735	 142.615
 2378	 13.7600	  5.3951	   8.740	 142.675
 2379	 13.7600	  5.4001	   8.745	 142.735
 2380	 13.7400	  5.4051	   8.750	 142.795
 2381	 13.7200	  5.4101	   8.755	 142.855
 2382	 13.7200	  5.4151	   8.760	 142.915
 2383	 13.7000	  5.4201	   8.765	 142.975
 2384	 13.7000	  5.4251	   8.770	 143.035
 2385	 13.6800	  5.4301	   8.775	 143.095
 2386	 13.6800	  5.4351	   8.780	 143.155
 2387	 13.6600	  5.4401	   8.785	 143.215
 2388	 13.6600	  5.4464	   8.791	 143.275
 2389	 13.6400	  5.4501	   8.795	 143.335
 2390	 13.6400	  5.4551	   8.800	 143.395
 2391	 13.6200	  5.4601	   8.805	 143.455
 2392	 13.6200	  5.4651	   8.810	 143.515
 2393	 13.6000	  5.4701	   8.815	 143.575
 2394	 13.6000	  5.4751	   8.820	 143.635
 2395	 13.5800	  5.4801	   8.825	 143.695
 2396	 13.5800	  5.4851	   8.830	 143.755
 2397	 13.5600	  5.4901	   8.835	 143.815
 2398	 13.5600	  5.4951	   8.840	 143.875
 2399	 13.5400	  5.5001	   8.845	 143.935
 2400	 13.5400	  5.5051	   8.850	 143.995
 2401	 13.5200	  5.5114	   8.856	 144.055
 2402	 13.5000	  5.5164	   8.861	 144.115
 2403	 13.5000	  5.5214	   8.866	 144.175
 2404	 13.5000	  5.5264	   8.871	 144.235
 2405	 13.4800	  5.5314	   8.876	 144.295
 2406	 13.4600	  5.5364	   8.881	 144.355
 2407	 13.4600	  5.5414	   8.886	 144.415
 2408	 13.4400	  5.5464	   8.891	 144.475
 2409	 13.4400	  5.5514	   8.896	 144.535
 2410	 13.4200	  5.5564	   8.901	 144.595
 2411	 13.4200	  5.5614	   8.906	 144.655
 2412	 13.4000	  5.5664	   8.911	 144.715
 2413	 13.4000	  5.5714	   8.916	 144.775
 2414	 13.3800	  5.5764	   8.921	 144.835
 2415	 13.3800	  5.5814	   8.926	 144.895
 2416	 13.3600	  5.5864	   8.931	 144.955
 2417	 13.3400	  5.5914	   8.936	 145.015
 2418	 13.3400	  5.5964	   8.941	 145.075
 2419	 13.3200	  5.6014	   8.946	 145.135
 2420	 13.3200	  5.6064	   8.951	 145.195
 2421	 13.3000	  5.6114	   8.956	 145.255
 2422	 13.2800	  5.6164	   8.961	 145.315
 2423	 13.2800	  5.6214	   8.966	 145.375
 2424	 13.2600	  5.6264	   8.971	 145.435
 2425	 13.2600	  5.6314	   8.976	 145.495
 2426	 13.2400	  5.6364	   8.981	 145.555
 2427	 13.2400	  5.6414	   8.986	 145.615
 2428	 13.2200	  5.6464	   8.991	 145.675
 2429	 13.2200	  5.6514	   8.996	 145.735
 2430	 13.2000	  5.6564	   9.001	 145.795
 2431	 13.1800	  5.6614	   9.006	 145.855
 2432	 13.1800	  5.6664	   9.011	 145.915
 2433	 13.1600	  5.6714	   9.016	 145.975
 2434	 13.1600	  5.6764	   9.021	 146.035
 2435	 13.1400	  5.6814	   9.026	 146.095
 2436	 13.1400	  5.6864	   9.031	 146.155
 2437	 13.1200	  5.6914	   9.036	 146.215
 2438	 13.1000	  5.6964	   9.041	 146.275
 2439	 13.1000	  5.7014	   9.046	 146.335
 2440	 13.0800	  5.7064	   9.051	 146.395
 2441	 13.0800	  5.7114	   9.056	 146.455
 2442	 13.0600	  5.7164	   9.061	 146.515
 2443	 13.0600	  5.7214	   9.066	 146.575
 2444	 13.0400	  5.7264	   9.071	 146.635
 2445	 13.0200	  5.7314	   9.076	 146.695
 2446	 13.0200	  5.7364	   9.081	 146.755
 2447	 13.0000	  5.7414	   9.086	 146.815
 2448	 13.0000	  5.7464	   9.091	 146.875
 2449	 12.9800	  5.7514	   9.096	 146.935
 2450	 12.9600	  5.7564	   9.101	 146.995
 2451	 12.9600	  5.7614	   9.106	 147.055
 2452	 12.9400	  5.7664	   9.111	 147.115
 2453	 12.9400	  5.7714	   9.116	 147.175
 2454	 12.9200	  5.7764	   9.121	 147.235
 2455	 12.9000	  5.7814	   9.126	 147.295
 2456	 12.9000	  5.7864	   9.131	 147.355
 2457	 12.8800	  5.7914	   9.136	 147.415
 2458	 12.8600	  5.7964	   9.141	 147.475
 2459	 12.8600	  5.8014	   9.146	 147.535
 2460	 12.8400	  5.8064	   9.151	 147.595
 2461	 12.8400	  5.8114	   9.156	 147.655
 2462	 12.8200	  5.8164	   9.161	 147.715
 2463	 12.8000	  5.8214	   9.166	 147.775
 2464	 12.8000	  5.8264	   9.171	 147.835
 2465	 12.7800	  5.8314	   9.176	 147.895
 2466	 12.7800	  5.8364	   9.181	 147.955
 2467	 12.7600	  5.8414	   9.186	 148.015
 2468	 12.7400	  5.8464	   9.191	 148.075
 2469	 12.7400	  5.8514	   9.196	 148.135
 2470	 12.7200	  5.8564	   9.201	 148.195
 2471	 12.7000	  5.8614	   9.206	 148.255
 2472	 12.7000	  5.8664	   9.211	 148.315
 2473	 12.6800	  5.8714	   9.216	 148.375
 2474	 12.6800	  5.8764	   9.221	 148.435
 2475	 12.6600	  5.8814	   9.226	 148.495
 2476	 12.6400	  5.8864	   9.231	 148.555
 2477	 12.6400	  5.8914	   9.236	 148.615
 2478	 12.6200	  5.8964	   9.241	 148.675
 2479	 12.6000	  5.9014	   9.246	 148.735
 2480	 12.6000	  5.9064	   9.251	 148.795
 2481	 12.5800	  5.9114	   9.256	 148.855
 2482	 12.5600	  5.9164	   9.261	 148.915
 2483	 12.5600	  5.9214	   9.266	 148.975
 2484	 12.5400	  5.9264	   9.271	 149.035
 2485	 12.5200	  5.9314	   9.276	 149.095
 2486	 12.5200	  5.9364	   9.281	 149.155
 2487	 12.5000	  5.9414	   9.286	 149.215
 2488	 12.4800	  5.9464	   9.291	 149.275
 2489	 12.4800	  5.9514	   9.296	 149.335
 2490	 12.4600	  5.9576	   9.302	 149.395
 2491	 12.4400	  5.9614	   9.306	 149.455
 2492	 12.4400	  5.9676	   9.312	 149.515
 2493	 12.4200	  5.9726	   9.318	 149.575
 2494	 12.4000	  5.9776	   9.323	 149.635
 2495	 12.4000	  5.9826	   9.327	 149.695
 2496	 12.3800	  5.9876	   9.332	 149.755
 2497	 12.3600	  5.9926	   9.337	 149.815
 2498	 12.3600	  5.9976	   9.342	 149.875
 2499	 12.3400	  6.0026	   9.347	 149.935
 2500	 12.3200	  6.0076	   9.352	 149.995
 2501	 12.3000	  6.0126	   9.358	 150.055
 2502	 12.3000	  6.0176	   9.363	 150.115
 2503	 12.2800	  6.0226	   9.367	 150.175
 2504	 12.2600	  6.0276	   9.372	 150.235
 2505	 12.2400	  6.0326	   9.377	 150.295
 2506	 12.2400	  6.0376	   9.382	 150.355
 2507	 12.2200	  6.0426	   9.387	 150.415
 2508	 12.2000	  6.0476	   9.392	 150.475
 2509	 12.2000	  6.0526	   9.398	 150.535
 2510	 12.1800	  6.0576	   9.403	 150.595
 2511	 12.1600	  6.0626	   9.407	 150.655
 2512	 12.1400	  6.0676	   9.412	 150.715
 2513	 12.1400	  6.0726	   9.417	 150.775
 2514	 12.1200	  6.0776	   9.422	 150.835
 2515	 12.1000	  6.0826	   9.427	 150.895
 2516	 12.0800	  6.0876	   9.432	 150.955
 2517	 12.0800	  6.0926	   9.438	 151.015
 2518	 12.0600	  6.0976	   9.443	 151.075
 2519	 12.0400	  6.1026	   9.448	 151.135
 2520	 12.0200	  6.1076	   9.452	 151.195
 2521	 12.0000	  6.1126	   9.457	 151.255
 2522	 11.9800	  6.1176	   9.462	 151.315
 2523	 11.3200	  6.1289	   9.474	 151.375
 2524	  0.4000	  6.1351	   9.480	 151.435
 2525	  0.0800	  6.1401	   9.485	 151.495
 2526	  0.0600	  6.1451	   9.490	 151.555
 2527	  0.0600	  6.1501	   9.495	 151.615
 2528	  0.0600	  6.1551	   9.500	 151.675
 2529	  0.0600	  6.1601	   9.505	 151.735
 2530	  0.0600	  6.1651	   9.510	 151.795
 2531	  0.0600	  6.1701	   9.515	 151.855
 2532	  0.0600	  6.1751	   9.520	 151.915
 2533	  0.0600	  6.1801	   9.525	 151.975
 2534	  0.0600	  6.1851	   9.530	 152.035
 2535	  0.0600	  6.1901	   9.535	 152.095
 2536	  0.0600	  6.1951	   9.540	 152.155
 2537	  0.0600	  6.2001	   9.545	 152.215
 2538	  0.0600	  6.2051	   9.550	 152.275
 2539	  0.0600	  6.2101	   9.555	 152.335
 2540	  0.0600	  6.2151	   9.560	 152.395
 2541	  0.0600	  6.2201	   9.565	 152.455
 2542	  0.0600	  6.2251	   9.570	 152.515
 2543	  0.0600	  6.2301	   9.575	 152.575
 2544	  0.0600	  6.2351	   9.580	 152.635
 2545	  0.0600	  6.2401	   9.585	 152.695
 2546	  0.0600	  6.2464	   9.591	 152.755
 2547	  0.0600	  6.2514	   9.596	 152.815
 2548	  0.0600	  6.2564	   9.601	 152.875
 2549	  0.0600	  6.2614	   9.606	 152.935
 2550	  0.0600	  6.2664	   9.611	 152.995
 2551	  0.0600	  6.2714	   9.616	 153.055
 2552	  0.0600	  6.2764	   9.621	 153.115
 2553	  0.0600	  6.2814	   9.626	 153.175
 2554	  0.0600	  6.2864	   9.631	 153.235
 2555	  0.0600	  6.2914	   9.636	 153.295
 2556	  0.0600	  6.2964	   9.641	 153.355
 2557	  0.0600	  6.3014	   9.646	 153.415
 2558	  0.0600	  6.3064	   9.651	 153.475
 2559	  0.0600	  6.3114	   9.656	 153.535
 2560	  0.0600	  6.3164	   9.661	 153.595
 2561	  0.0600	  6.3214	   9.666	 153.655
 2562	  0.0600	  6.3264	   9.671	 153.715
 2563	  0.0600	  6.3314	   9.676	 153.775
 2564	  0.0600	  6.3364	   9.681	 153.835
 2565	  0.0600	  6.3414	   9.686	 153.895
 2566	  0.0600	  6.3464	   9.691	 153.955
 2567	  0.0600	  6.3514	   9.696	 154.015
 2568	  0.0600	  6.3564	   9.701	 154.075
 2569	  0.0600	  6.3614	   9.706	 154.135
 2570	  0.0600	  6.3664	   9.711	 154.195
 2571	  0.0600	  6.3714	   9.716	 154.255
 2572	  0.0600	  6.3764	   9.721	 154.315
 2573	  0.0600	  6.3814	   9.726	 154.375
 2574	  0.0600	  6.3864	   9.731	 154.435
 2575	  0.0600	  6.3914	   9.736	 154.495
 2576	  0.0600	  6.3964	   9.741	 154.555
 2577	  0.0600	  6.4014	   9.746	 154.615
 2578	  0.0600	  6.4064	   9.751	 154.675
 2579	  0.0600	  6.4114	   9.756	 154.735
 2580	  0.0600	  6.4164	   9.761	 154.795
 2581	  0.0600	  6.4214	   9.766	 154.855
 2582	  0.0600	  6.4264	   9.771	 154.915
 2583	  0.0600	  6.4314	   9.776	 154.975
 2584	  0.0600	  6.4364	   9.781	 155.035
 2585	  0.0600	  6.4414	   9.786	 155.095
 2586	  0.0600	  6.4464	   9.791	 155.155
 2587	  0.0600	  6.4514	   9.796	 155.215
 2588	  0.0600	  6.4564	   9.801	 155.275
 2589	  0.0600	  6.4614	   9.806	 155.335
 2590	  0.0600	  6.4664	   9.811	 155.395
 2591	  0.0600	  6.4714	   9.816	 155.455
 2592	  0.0600	  6.4764	   9.821	 155.515
 2593	  0.0600	  6.4814	   9.826	 155.575
 2594	  0.0600	  6.4864	   9.831	 155.635
 2595	  0.0600	  6.4914	   9.836	 155.695
 2596	  0.0600	  6.4964	   9.841	 155.755
 2597	  0.0600	  6.5014	   9.846	 155.815
 2598	  0.0600	  6.5064	   9.851	 155.875
 2599	  0.0600	  6.5114	   9.856	 155.935
ControlMode:	0
Rate:	  5.0000
(null)
4
step	1
0
5.000000
0.000000
1
1
0.500000
2
step	2
1
5.000000
0.000000
1
1
2.000000
3
step	3
5
2.000000
0.000000
1
0
30.000000
4
step	4
8
0.000000
0.000000
0
0
0.000000
0
2
