0
Diameter:	   8.00
   1.00
Area:	  50.2655
GaugeLength:	  50.00
2009-1-1
al solu
001
DataNumber:	3395
index	Load(kN)	Defor(mm)	Stroke(mm)	Time(s)
    0	  0.0000	  0.0000	   0.000	   0.000
    1	  0.0000	  0.0000	   0.000	   0.055
    2	  0.0000	  0.0000	   0.001	   0.115
    3	  0.0000	  0.0000	   0.001	   0.175
    4	  0.0200	  0.0000	   0.005	   0.235
    5	  0.0600	  0.0000	   0.010	   0.295
    6	  0.0800	  0.0020	   0.015	   0.355
    7	  0.1000	  0.0020	   0.020	   0.415
    8	  0.1400	  0.0020	   0.025	   0.475
    9	  0.1600	  0.0020	   0.029	   0.535
   10	  0.1600	  0.0020	   0.035	   0.595
   11	  0.1600	  0.0020	   0.039	   0.655
   12	  0.1600	  0.0020	   0.045	   0.715
   13	  0.1600	  0.0020	   0.049	   0.775
   14	  0.1600	  0.0020	   0.055	   0.835
   15	  0.1600	  0.0020	   0.059	   0.895
   16	  0.1600	  0.0020	   0.065	   0.955
   17	  0.1800	  0.0020	   0.069	   1.015
   18	  0.1800	  0.0020	   0.074	   1.075
   19	  0.2200	  0.0040	   0.079	   1.135
   20	  0.2600	  0.0040	   0.084	   1.195
   21	  0.2800	  0.0060	   0.089	   1.255
   22	  0.3200	  0.0060	   0.094	   1.315
   23	  0.3400	  0.0080	   0.099	   1.375
   24	  0.3800	  0.0080	   0.104	   1.435
   25	  0.3800	  0.0080	   0.109	   1.495
   26	  0.3800	  0.0100	   0.114	   1.555
   27	  0.3600	  0.0080	   0.119	   1.615
   28	  0.3600	  0.0080	   0.124	   1.675
   29	  0.3800	  0.0080	   0.129	   1.735
   30	  0.3800	  0.0080	   0.134	   1.795
   31	  0.3800	  0.0080	   0.139	   1.855
   32	  0.3800	  0.0100	   0.144	   1.915
   33	  0.3800	  0.0100	   0.149	   1.975
   34	  0.4000	  0.0080	   0.154	   2.035
   35	  0.4000	  0.0100	   0.159	   2.095
   36	  0.4000	  0.0100	   0.164	   2.155
   37	  0.4000	  0.0100	   0.169	   2.215
   38	  0.4200	  0.0100	   0.174	   2.275
   39	  0.4200	  0.0100	   0.179	   2.335
   40	  0.4200	  0.0100	   0.184	   2.395
   41	  0.4400	  0.0100	   0.189	   2.455
   42	  0.4400	  0.0100	   0.194	   2.515
   43	  0.4400	  0.0120	   0.199	   2.575
   44	  0.4400	  0.0100	   0.201	   2.635
   45	  0.4600	  0.0120	   0.206	   2.695
   46	  0.4600	  0.0120	   0.211	   2.755
   47	  0.4600	  0.0120	   0.216	   2.815
   48	  0.4800	  0.0120	   0.221	   2.875
   49	  0.4800	  0.0120	   0.226	   2.935
   50	  0.4800	  0.0120	   0.231	   2.995
   51	  0.5000	  0.0120	   0.236	   3.055
   52	  0.5000	  0.0120	   0.241	   3.115
   53	  0.5000	  0.0140	   0.246	   3.175
   54	  0.5000	  0.0120	   0.251	   3.235
   55	  0.5200	  0.0140	   0.256	   3.295
   56	  0.5200	  0.0140	   0.261	   3.355
   57	  0.5400	  0.0140	   0.266	   3.415
   58	  0.5400	  0.0140	   0.271	   3.475
   59	  0.5400	  0.0140	   0.276	   3.535
   60	  0.5400	  0.0140	   0.281	   3.595
   61	  0.5600	  0.0140	   0.286	   3.655
   62	  0.5600	  0.0140	   0.291	   3.715
   63	  0.5800	  0.0140	   0.296	   3.775
   64	  0.5800	  0.0140	   0.301	   3.835
   65	  0.5800	  0.0140	   0.306	   3.895
   66	  0.6000	  0.0140	   0.311	   3.955
   67	  0.6000	  0.0140	   0.316	   4.015
   68	  0.6200	  0.0160	   0.321	   4.075
   69	  0.6200	  0.0160	   0.326	   4.135
   70	  0.6200	  0.0160	   0.331	   4.195
   71	  0.6400	  0.0160	   0.336	   4.255
   72	  0.6400	  0.0160	   0.341	   4.315
   73	  0.6400	  0.0160	   0.346	   4.375
   74	  0.6600	  0.0160	   0.351	   4.435
   75	  0.6600	  0.0160	   0.356	   4.495
   76	  0.6800	  0.0160	   0.361	   4.555
   77	  0.6800	  0.0160	   0.366	   4.615
   78	  0.6800	  0.0160	   0.371	   4.675
   79	  0.7000	  0.0160	   0.376	   4.735
   80	  0.7000	  0.0180	   0.381	   4.795
   81	  0.7000	  0.0180	   0.386	   4.855
   82	  0.7200	  0.0160	   0.391	   4.915
   83	  0.7200	  0.0180	   0.396	   4.975
   84	  0.7400	  0.0180	   0.401	   5.035
   85	  0.7400	  0.0180	   0.406	   5.095
   86	  0.7600	  0.0180	   0.411	   5.155
   87	  0.7600	  0.0180	   0.416	   5.215
   88	  0.7600	  0.0180	   0.422	   5.275
   89	  0.7600	  0.0180	   0.426	   5.335
   90	  0.7600	  0.0180	   0.433	   5.395
   91	  0.7800	  0.0180	   0.438	   5.455
   92	  0.7800	  0.0180	   0.442	   5.515
   93	  0.7800	  0.0180	   0.446	   5.575
   94	  0.8000	  0.0180	   0.452	   5.635
   95	  0.8000	  0.0200	   0.457	   5.695
   96	  0.8200	  0.0200	   0.462	   5.755
   97	  0.8200	  0.0200	   0.466	   5.815
   98	  0.8200	  0.0200	   0.471	   5.875
   99	  0.8400	  0.0200	   0.476	   5.935
  100	  0.8400	  0.0180	   0.481	   5.995
  101	  0.8400	  0.0200	   0.486	   6.055
  102	  0.8600	  0.0200	   0.491	   6.115
  103	  0.8600	  0.0200	   0.496	   6.175
  104	  0.8600	  0.0200	   0.501	   6.235
  105	  0.8800	  0.0200	   0.506	   6.295
  106	  0.8800	  0.0200	   0.511	   6.355
  107	  0.8800	  0.0200	   0.516	   6.415
  108	  0.9000	  0.0200	   0.521	   6.475
  109	  0.9000	  0.0200	   0.526	   6.535
  110	  0.9000	  0.0200	   0.531	   6.595
  111	  0.9200	  0.0200	   0.536	   6.655
  112	  0.9200	  0.0200	   0.541	   6.715
  113	  0.9200	  0.0200	   0.546	   6.775
  114	  0.9400	  0.0220	   0.551	   6.835
  115	  0.9400	  0.0220	   0.556	   6.895
  116	  0.9600	  0.0220	   0.561	   6.955
  117	  0.9600	  0.0220	   0.566	   7.015
  118	  0.9600	  0.0220	   0.571	   7.075
  119	  0.9800	  0.0220	   0.576	   7.135
  120	  0.9800	  0.0220	   0.581	   7.195
  121	  0.9800	  0.0220	   0.586	   7.255
  122	  1.0000	  0.0220	   0.591	   7.315
  123	  1.0000	  0.0220	   0.596	   7.375
  124	  1.0000	  0.0220	   0.601	   7.435
  125	  1.0200	  0.0220	   0.606	   7.495
  126	  1.0200	  0.0220	   0.611	   7.555
  127	  1.0200	  0.0240	   0.616	   7.615
  128	  1.0400	  0.0240	   0.621	   7.675
  129	  1.0400	  0.0240	   0.626	   7.735
  130	  1.0400	  0.0240	   0.631	   7.795
  131	  1.0600	  0.0240	   0.636	   7.855
  132	  1.0600	  0.0240	   0.641	   7.915
  133	  1.0800	  0.0240	   0.646	   7.975
  134	  1.0800	  0.0240	   0.651	   8.035
  135	  1.0800	  0.0240	   0.656	   8.095
  136	  1.1000	  0.0240	   0.661	   8.155
  137	  1.1000	  0.0240	   0.666	   8.215
  138	  1.1000	  0.0240	   0.671	   8.275
  139	  1.1200	  0.0240	   0.676	   8.335
  140	  1.1200	  0.0240	   0.681	   8.395
  141	  1.1200	  0.0260	   0.686	   8.455
  142	  1.1400	  0.0260	   0.691	   8.515
  143	  1.1400	  0.0260	   0.696	   8.575
  144	  1.1600	  0.0260	   0.701	   8.635
  145	  1.1600	  0.0260	   0.706	   8.695
  146	  1.1600	  0.0260	   0.711	   8.755
  147	  1.1800	  0.0260	   0.716	   8.815
  148	  1.1800	  0.0260	   0.721	   8.875
  149	  1.1800	  0.0260	   0.726	   8.935
  150	  1.2000	  0.0260	   0.731	   8.995
  151	  1.2000	  0.0260	   0.736	   9.055
  152	  1.2200	  0.0260	   0.741	   9.115
  153	  1.2200	  0.0260	   0.746	   9.175
  154	  1.2200	  0.0260	   0.751	   9.235
  155	  1.2400	  0.0260	   0.756	   9.295
  156	  1.2400	  0.0260	   0.761	   9.355
  157	  1.2400	  0.0260	   0.766	   9.415
  158	  1.2600	  0.0280	   0.771	   9.475
  159	  1.2600	  0.0260	   0.776	   9.535
  160	  1.2800	  0.0260	   0.781	   9.595
  161	  1.2800	  0.0260	   0.786	   9.655
  162	  1.3000	  0.0280	   0.791	   9.715
  163	  1.3000	  0.0280	   0.795	   9.775
  164	  1.3000	  0.0280	   0.801	   9.835
  165	  1.3200	  0.0280	   0.805	   9.895
  166	  1.3200	  0.0280	   0.811	   9.955
  167	  1.3400	  0.0260	   0.815	  10.015
  168	  1.3400	  0.0280	   0.821	  10.075
  169	  1.3400	  0.0280	   0.825	  10.135
  170	  1.3600	  0.0280	   0.831	  10.195
  171	  1.3600	  0.0280	   0.836	  10.255
  172	  1.3800	  0.0280	   0.841	  10.315
  173	  1.3800	  0.0280	   0.846	  10.375
  174	  1.3800	  0.0280	   0.851	  10.435
  175	  1.4000	  0.0280	   0.855	  10.495
  176	  1.4000	  0.0280	   0.861	  10.555
  177	  1.4200	  0.0280	   0.865	  10.615
  178	  1.4200	  0.0280	   0.871	  10.675
  179	  1.4200	  0.0280	   0.875	  10.735
  180	  1.4400	  0.0300	   0.881	  10.795
  181	  1.4400	  0.0280	   0.885	  10.855
  182	  1.4600	  0.0280	   0.891	  10.915
  183	  1.4600	  0.0300	   0.895	  10.975
  184	  1.4800	  0.0300	   0.901	  11.035
  185	  1.4800	  0.0300	   0.905	  11.095
  186	  1.4800	  0.0300	   0.910	  11.155
  187	  1.5000	  0.0300	   0.915	  11.215
  188	  1.5000	  0.0300	   0.920	  11.275
  189	  1.5200	  0.0300	   0.925	  11.335
  190	  1.5200	  0.0300	   0.930	  11.395
  191	  1.5400	  0.0300	   0.935	  11.455
  192	  1.5400	  0.0300	   0.940	  11.515
  193	  1.5600	  0.0300	   0.945	  11.575
  194	  1.5600	  0.0300	   0.950	  11.635
  195	  1.5800	  0.0300	   0.955	  11.695
  196	  1.5800	  0.0300	   0.960	  11.755
  197	  1.5800	  0.0300	   0.965	  11.815
  198	  1.6000	  0.0300	   0.970	  11.875
  199	  1.6000	  0.0300	   0.975	  11.935
  200	  1.6200	  0.0320	   0.981	  11.995
  201	  1.6200	  0.0300	   0.985	  12.055
  202	  1.6400	  0.0320	   0.991	  12.115
  203	  1.6400	  0.0320	   0.995	  12.175
  204	  1.6600	  0.0320	   1.001	  12.235
  205	  1.6600	  0.0320	   1.005	  12.295
  206	  1.6800	  0.0320	   1.011	  12.355
  207	  1.6800	  0.0320	   1.015	  12.415
  208	  1.6800	  0.0320	   1.021	  12.475
  209	  1.7000	  0.0320	   1.025	  12.535
  210	  1.7200	  0.0320	   1.031	  12.595
  211	  1.7200	  0.0320	   1.035	  12.655
  212	  1.7200	  0.0340	   1.041	  12.715
  213	  1.7400	  0.0340	   1.045	  12.775
  214	  1.7400	  0.0340	   1.050	  12.835
  215	  1.7600	  0.0340	   1.055	  12.895
  216	  1.7600	  0.0340	   1.060	  12.955
  217	  1.7800	  0.0340	   1.065	  13.015
  218	  1.7800	  0.0340	   1.070	  13.075
  219	  1.8000	  0.0340	   1.075	  13.135
  220	  1.8000	  0.0340	   1.080	  13.195
  221	  1.8200	  0.0340	   1.085	  13.255
  222	  1.8200	  0.0340	   1.090	  13.315
  223	  1.8400	  0.0340	   1.095	  13.375
  224	  1.8400	  0.0340	   1.100	  13.435
  225	  1.8600	  0.0360	   1.105	  13.495
  226	  1.8600	  0.0360	   1.110	  13.555
  227	  1.8800	  0.0360	   1.115	  13.615
  228	  1.8800	  0.0360	   1.120	  13.675
  229	  1.9000	  0.0360	   1.125	  13.735
  230	  1.9200	  0.0360	   1.130	  13.795
  231	  1.9200	  0.0360	   1.135	  13.855
  232	  1.9400	  0.0360	   1.140	  13.915
  233	  1.9400	  0.0360	   1.145	  13.975
  234	  1.9600	  0.0360	   1.150	  14.035
  235	  1.9600	  0.0360	   1.155	  14.095
  236	  1.9800	  0.0380	   1.160	  14.155
  237	  1.9800	  0.0380	   1.165	  14.215
  238	  2.0000	  0.0360	   1.170	  14.275
  239	  2.0000	  0.0380	   1.175	  14.335
  240	  2.0200	  0.0380	   1.180	  14.395
  241	  2.0200	  0.0380	   1.185	  14.455
  242	  2.0400	  0.0380	   1.190	  14.515
  243	  2.0600	  0.0380	   1.195	  14.575
  244	  2.0600	  0.0380	   1.200	  14.635
  245	  2.0800	  0.0380	   1.205	  14.695
  246	  2.0800	  0.0400	   1.210	  14.755
  247	  2.1000	  0.0380	   1.215	  14.815
  248	  2.1000	  0.0400	   1.220	  14.875
  249	  2.1200	  0.0400	   1.225	  14.935
  250	  2.1200	  0.0400	   1.230	  14.995
  251	  2.1400	  0.0400	   1.235	  15.055
  252	  2.1600	  0.0400	   1.240	  15.115
  253	  2.1600	  0.0400	   1.245	  15.175
  254	  2.1800	  0.0400	   1.250	  15.235
  255	  2.2000	  0.0400	   1.255	  15.295
  256	  2.2000	  0.0400	   1.260	  15.355
  257	  2.2200	  0.0420	   1.265	  15.415
  258	  2.2200	  0.0420	   1.270	  15.475
  259	  2.2400	  0.0420	   1.275	  15.535
  260	  2.2600	  0.0420	   1.280	  15.595
  261	  2.2600	  0.0420	   1.285	  15.655
  262	  2.2800	  0.0420	   1.290	  15.715
  263	  2.2800	  0.0420	   1.295	  15.775
  264	  2.3000	  0.0420	   1.300	  15.835
  265	  2.3200	  0.0420	   1.305	  15.895
  266	  2.3200	  0.0440	   1.310	  15.955
  267	  2.3400	  0.0420	   1.315	  16.015
  268	  2.3600	  0.0440	   1.320	  16.075
  269	  2.3600	  0.0440	   1.325	  16.135
  270	  2.3800	  0.0440	   1.330	  16.195
  271	  2.3800	  0.0440	   1.335	  16.255
  272	  2.4000	  0.0440	   1.340	  16.315
  273	  2.4200	  0.0440	   1.345	  16.375
  274	  2.4200	  0.0440	   1.350	  16.435
  275	  2.4400	  0.0440	   1.355	  16.495
  276	  2.4600	  0.0440	   1.360	  16.555
  277	  2.4600	  0.0460	   1.364	  16.615
  278	  2.4800	  0.0460	   1.369	  16.675
  279	  2.4800	  0.0460	   1.374	  16.735
  280	  2.5000	  0.0460	   1.379	  16.795
  281	  2.5200	  0.0460	   1.384	  16.855
  282	  2.5200	  0.0460	   1.390	  16.915
  283	  2.5400	  0.0480	   1.394	  16.975
  284	  2.5600	  0.0460	   1.400	  17.035
  285	  2.5800	  0.0460	   1.405	  17.095
  286	  2.5800	  0.0480	   1.410	  17.155
  287	  2.6000	  0.0480	   1.415	  17.215
  288	  2.6000	  0.0480	   1.420	  17.275
  289	  2.6200	  0.0480	   1.425	  17.335
  290	  2.6400	  0.0480	   1.430	  17.395
  291	  2.6600	  0.0480	   1.435	  17.455
  292	  2.6600	  0.0480	   1.440	  17.515
  293	  2.6800	  0.0500	   1.445	  17.575
  294	  2.7000	  0.0500	   1.450	  17.635
  295	  2.7000	  0.0500	   1.455	  17.695
  296	  2.7200	  0.0500	   1.460	  17.755
  297	  2.7400	  0.0500	   1.465	  17.815
  298	  2.7400	  0.0500	   1.470	  17.875
  299	  2.7600	  0.0500	   1.475	  17.935
  300	  2.7800	  0.0500	   1.480	  17.995
  301	  2.8000	  0.0500	   1.485	  18.055
  302	  2.8000	  0.0520	   1.490	  18.115
  303	  2.8200	  0.0520	   1.495	  18.175
  304	  2.8400	  0.0520	   1.500	  18.235
  305	  2.8400	  0.0520	   1.505	  18.295
  306	  2.8600	  0.0520	   1.510	  18.355
  307	  2.8800	  0.0520	   1.515	  18.415
  308	  2.8800	  0.0540	   1.520	  18.475
  309	  2.9000	  0.0520	   1.525	  18.535
  310	  2.9200	  0.0540	   1.530	  18.595
  311	  2.9400	  0.0540	   1.535	  18.655
  312	  2.9400	  0.0540	   1.540	  18.715
  313	  2.9600	  0.0540	   1.545	  18.775
  314	  2.9800	  0.0540	   1.550	  18.835
  315	  3.0000	  0.0540	   1.555	  18.895
  316	  3.0000	  0.0560	   1.560	  18.955
  317	  3.0200	  0.0560	   1.565	  19.015
  318	  3.0400	  0.0560	   1.570	  19.075
  319	  3.0400	  0.0560	   1.575	  19.135
  320	  3.0600	  0.0560	   1.580	  19.195
  321	  3.0800	  0.0560	   1.585	  19.255
  322	  3.1000	  0.0560	   1.590	  19.315
  323	  3.1000	  0.0580	   1.595	  19.375
  324	  3.1200	  0.0580	   1.600	  19.435
  325	  3.1400	  0.0580	   1.605	  19.495
  326	  3.1600	  0.0580	   1.610	  19.555
  327	  3.1600	  0.0580	   1.615	  19.615
  328	  3.1800	  0.0580	   1.620	  19.675
  329	  3.2000	  0.0600	   1.625	  19.735
  330	  3.2000	  0.0600	   1.629	  19.795
  331	  3.2200	  0.0600	   1.634	  19.855
  332	  3.2400	  0.0600	   1.639	  19.915
  333	  3.2600	  0.0600	   1.644	  19.975
  334	  3.2600	  0.0600	   1.649	  20.035
  335	  3.2800	  0.0600	   1.654	  20.095
  336	  3.3000	  0.0620	   1.659	  20.155
  337	  3.3200	  0.0620	   1.664	  20.215
  338	  3.3400	  0.0620	   1.669	  20.275
  339	  3.3400	  0.0620	   1.675	  20.335
  340	  3.3600	  0.0620	   1.680	  20.395
  341	  3.3800	  0.0620	   1.685	  20.455
  342	  3.4000	  0.0620	   1.690	  20.515
  343	  3.4000	  0.0620	   1.695	  20.575
  344	  3.4200	  0.0640	   1.700	  20.635
  345	  3.4400	  0.0640	   1.705	  20.695
  346	  3.4600	  0.0640	   1.710	  20.755
  347	  3.4800	  0.0640	   1.715	  20.815
  348	  3.4800	  0.0660	   1.720	  20.875
  349	  3.5000	  0.0660	   1.725	  20.935
  350	  3.5200	  0.0660	   1.730	  20.995
  351	  3.5400	  0.0660	   1.735	  21.055
  352	  3.5600	  0.0660	   1.740	  21.115
  353	  3.5600	  0.0660	   1.745	  21.175
  354	  3.5800	  0.0680	   1.750	  21.235
  355	  3.6000	  0.0680	   1.755	  21.295
  356	  3.6200	  0.0680	   1.760	  21.355
  357	  3.6200	  0.0680	   1.765	  21.415
  358	  3.6400	  0.0680	   1.770	  21.475
  359	  3.6600	  0.0700	   1.775	  21.535
  360	  3.6800	  0.0700	   1.780	  21.595
  361	  3.6800	  0.0700	   1.785	  21.655
  362	  3.7000	  0.0700	   1.790	  21.715
  363	  3.7200	  0.0700	   1.795	  21.775
  364	  3.7400	  0.0700	   1.800	  21.835
  365	  3.7400	  0.0720	   1.805	  21.895
  366	  3.7600	  0.0720	   1.810	  21.955
  367	  3.7800	  0.0720	   1.815	  22.015
  368	  3.8000	  0.0720	   1.820	  22.075
  369	  3.8200	  0.0740	   1.825	  22.135
  370	  3.8400	  0.0740	   1.830	  22.195
  371	  3.8400	  0.0740	   1.835	  22.255
  372	  3.8600	  0.0740	   1.840	  22.315
  373	  3.8800	  0.0740	   1.845	  22.375
  374	  3.9000	  0.0740	   1.850	  22.435
  375	  3.9200	  0.0760	   1.855	  22.495
  376	  3.9400	  0.0760	   1.860	  22.555
  377	  3.9400	  0.0760	   1.865	  22.615
  378	  3.9600	  0.0760	   1.870	  22.675
  379	  3.9800	  0.0780	   1.875	  22.735
  380	  4.0000	  0.0780	   1.880	  22.795
  381	  4.0000	  0.0780	   1.885	  22.855
  382	  4.0200	  0.0780	   1.890	  22.915
  383	  4.0400	  0.0780	   1.895	  22.975
  384	  4.0600	  0.0780	   1.900	  23.035
  385	  4.0800	  0.0800	   1.905	  23.095
  386	  4.0800	  0.0800	   1.910	  23.155
  387	  4.1000	  0.0820	   1.915	  23.215
  388	  4.1200	  0.0820	   1.920	  23.275
  389	  4.1400	  0.0820	   1.925	  23.335
  390	  4.1600	  0.0820	   1.930	  23.395
  391	  4.1600	  0.0840	   1.935	  23.455
  392	  4.1800	  0.0840	   1.940	  23.515
  393	  4.2000	  0.0840	   1.945	  23.575
  394	  4.2200	  0.0840	   1.950	  23.635
  395	  4.2400	  0.0860	   1.955	  23.695
  396	  4.2400	  0.0860	   1.960	  23.755
  397	  4.2600	  0.0860	   1.964	  23.815
  398	  4.2800	  0.0880	   1.970	  23.875
  399	  4.3000	  0.0880	   1.975	  23.935
  400	  4.3200	  0.0900	   1.980	  23.995
  401	  4.3200	  0.0900	   1.985	  24.055
  402	  4.3400	  0.0900	   1.990	  24.115
  403	  4.3600	  0.0920	   1.995	  24.175
  404	  4.3800	  0.0920	   2.000	  24.235
  405	  4.3800	  0.0920	   2.005	  24.295
  406	  4.4000	  0.0940	   2.010	  24.355
  407	  4.4200	  0.0960	   2.015	  24.415
  408	  4.4200	  0.0960	   2.020	  24.475
  409	  4.4400	  0.0960	   2.025	  24.535
  410	  4.4600	  0.0980	   2.030	  24.595
  411	  4.4800	  0.1000	   2.035	  24.655
  412	  4.4800	  0.1000	   2.040	  24.715
  413	  4.5000	  0.1020	   2.045	  24.775
  414	  4.5200	  0.1020	   2.050	  24.835
  415	  4.5200	  0.1040	   2.055	  24.895
  416	  4.5400	  0.1060	   2.060	  24.955
  417	  4.5600	  0.1060	   2.065	  25.015
  418	  4.5600	  0.1080	   2.070	  25.075
  419	  4.5800	  0.1100	   2.075	  25.135
  420	  4.5800	  0.1120	   2.080	  25.195
  421	  4.6000	  0.1140	   2.085	  25.255
  422	  4.6000	  0.1140	   2.090	  25.315
  423	  4.6200	  0.1160	   2.095	  25.375
  424	  4.6400	  0.1180	   2.100	  25.435
  425	  4.6400	  0.1200	   2.105	  25.495
  426	  4.6600	  0.1220	   2.110	  25.555
  427	  4.6600	  0.1240	   2.115	  25.615
  428	  4.6800	  0.1260	   2.120	  25.675
  429	  4.6800	  0.1280	   2.125	  25.735
  430	  4.7000	  0.1300	   2.130	  25.795
  431	  4.7200	  0.1320	   2.135	  25.855
  432	  4.7200	  0.1340	   2.140	  25.915
  433	  4.7400	  0.1360	   2.145	  25.975
  434	  4.7400	  0.1380	   2.150	  26.035
  435	  4.7600	  0.1400	   2.155	  26.095
  436	  4.7600	  0.1420	   2.160	  26.155
  437	  4.7800	  0.1440	   2.165	  26.215
  438	  4.7800	  0.1460	   2.170	  26.275
  439	  4.8000	  0.1480	   2.175	  26.335
  440	  4.8000	  0.1500	   2.180	  26.395
  441	  4.8200	  0.1520	   2.184	  26.455
  442	  4.8200	  0.1540	   2.189	  26.515
  443	  4.8400	  0.1560	   2.195	  26.575
  444	  4.8400	  0.1580	   2.200	  26.635
  445	  4.8600	  0.1600	   2.205	  26.695
  446	  4.8600	  0.1620	   2.210	  26.755
  447	  4.8800	  0.1640	   2.215	  26.815
  448	  4.8800	  0.1660	   2.220	  26.875
  449	  4.9000	  0.1700	   2.225	  26.935
  450	  4.9000	  0.1720	   2.230	  26.995
  451	  4.9200	  0.1740	   2.235	  27.055
  452	  4.9200	  0.1760	   2.240	  27.115
  453	  4.9200	  0.1780	   2.245	  27.175
  454	  4.9400	  0.1800	   2.250	  27.235
  455	  4.9600	  0.1820	   2.255	  27.295
  456	  4.9600	  0.1860	   2.260	  27.355
  457	  4.9600	  0.1880	   2.265	  27.415
  458	  4.9800	  0.1900	   2.270	  27.475
  459	  4.9800	  0.1920	   2.275	  27.535
  460	  5.0000	  0.1960	   2.280	  27.595
  461	  5.0000	  0.1980	   2.285	  27.655
  462	  5.0200	  0.2000	   2.290	  27.715
  463	  5.0200	  0.2020	   2.295	  27.775
  464	  5.0400	  0.2060	   2.300	  27.835
  465	  5.0400	  0.2080	   2.305	  27.895
  466	  5.0400	  0.2100	   2.310	  27.955
  467	  5.0600	  0.2120	   2.315	  28.015
  468	  5.0600	  0.2160	   2.320	  28.075
  469	  5.0800	  0.2180	   2.325	  28.135
  470	  5.0800	  0.2200	   2.330	  28.195
  471	  5.1000	  0.2220	   2.335	  28.255
  472	  5.1000	  0.2240	   2.340	  28.315
  473	  5.1000	  0.2260	   2.345	  28.375
  474	  5.1000	  0.2280	   2.350	  28.435
  475	  5.1200	  0.2300	   2.355	  28.495
  476	  5.1200	  0.2340	   2.360	  28.555
  477	  5.1200	  0.2360	   2.365	  28.615
  478	  5.1400	  0.2400	   2.370	  28.675
  479	  5.1400	  0.2420	   2.375	  28.735
  480	  5.1600	  0.2440	   2.380	  28.795
  481	  5.1600	  0.2460	   2.385	  28.855
  482	  5.1600	  0.2500	   2.390	  28.915
  483	  5.1800	  0.2520	   2.395	  28.975
  484	  5.1800	  0.2540	   2.400	  29.035
  485	  5.2000	  0.2580	   2.405	  29.095
  486	  5.2000	  0.2600	   2.410	  29.155
  487	  5.2000	  0.2640	   2.415	  29.215
  488	  5.2200	  0.2660	   2.420	  29.275
  489	  5.2200	  0.2680	   2.425	  29.335
  490	  5.2400	  0.2700	   2.430	  29.395
  491	  5.2400	  0.2740	   2.435	  29.455
  492	  5.2600	  0.2760	   2.440	  29.515
  493	  5.2600	  0.2780	   2.445	  29.575
  494	  5.2600	  0.2820	   2.450	  29.635
  495	  5.2600	  0.2840	   2.455	  29.695
  496	  5.2800	  0.2880	   2.460	  29.755
  497	  5.2800	  0.2900	   2.465	  29.815
  498	  5.3000	  0.2920	   2.470	  29.875
  499	  5.3000	  0.2940	   2.475	  29.935
  500	  5.3000	  0.2980	   2.480	  29.995
  501	  5.3200	  0.3000	   2.485	  30.055
  502	  5.3200	  0.3040	   2.490	  30.115
  503	  5.3200	  0.3060	   2.495	  30.175
  504	  5.3400	  0.3080	   2.500	  30.235
  505	  5.3400	  0.3120	   2.505	  30.295
  506	  5.3600	  0.3140	   2.511	  30.355
  507	  5.3600	  0.3160	   2.515	  30.415
  508	  5.3600	  0.3200	   2.521	  30.475
  509	  5.3800	  0.3220	   2.525	  30.535
  510	  5.3800	  0.3260	   2.531	  30.595
  511	  5.3800	  0.3280	   2.535	  30.655
  512	  5.4000	  0.3300	   2.541	  30.715
  513	  5.4000	  0.3340	   2.546	  30.775
  514	  5.4200	  0.3360	   2.551	  30.835
  515	  5.4200	  0.3380	   2.556	  30.895
  516	  5.4200	  0.3420	   2.561	  30.955
  517	  5.4400	  0.3440	   2.566	  31.015
  518	  5.4400	  0.3480	   2.571	  31.075
  519	  5.4400	  0.3500	   2.576	  31.135
  520	  5.4600	  0.3540	   2.581	  31.195
  521	  5.4600	  0.3560	   2.586	  31.255
  522	  5.4600	  0.3580	   2.591	  31.315
  523	  5.4800	  0.3620	   2.596	  31.375
  524	  5.4800	  0.3640	   2.601	  31.435
  525	  5.4800	  0.3660	   2.606	  31.495
  526	  5.5000	  0.3700	   2.611	  31.555
  527	  5.5000	  0.3720	   2.616	  31.615
  528	  5.5200	  0.3760	   2.621	  31.675
  529	  5.5200	  0.3780	   2.626	  31.735
  530	  5.5200	  0.3800	   2.631	  31.795
  531	  5.5400	  0.3840	   2.636	  31.855
  532	  5.5400	  0.3860	   2.641	  31.915
  533	  5.5400	  0.3900	   2.646	  31.975
  534	  5.5600	  0.3920	   2.651	  32.035
  535	  5.5600	  0.3940	   2.656	  32.095
  536	  5.5600	  0.3980	   2.661	  32.155
  537	  5.5800	  0.4000	   2.666	  32.215
  538	  5.5800	  0.4040	   2.671	  32.275
  539	  5.6000	  0.4060	   2.676	  32.335
  540	  5.6000	  0.4080	   2.681	  32.395
  541	  5.6000	  0.4120	   2.686	  32.455
  542	  5.6000	  0.4140	   2.691	  32.515
  543	  5.6200	  0.4180	   2.696	  32.575
  544	  5.6200	  0.4200	   2.701	  32.635
  545	  5.6200	  0.4240	   2.706	  32.695
  546	  5.6400	  0.4260	   2.711	  32.755
  547	  5.6400	  0.4280	   2.716	  32.815
  548	  5.6600	  0.4320	   2.721	  32.875
  549	  5.6600	  0.4340	   2.726	  32.935
  550	  5.6600	  0.4380	   2.731	  32.995
  551	  5.6800	  0.4400	   2.736	  33.055
  552	  5.6800	  0.4420	   2.741	  33.115
  553	  5.6800	  0.4460	   2.746	  33.175
  554	  5.7000	  0.4480	   2.751	  33.235
  555	  5.7000	  0.4520	   2.756	  33.295
  556	  5.7000	  0.4540	   2.761	  33.355
  557	  5.7200	  0.4580	   2.766	  33.415
  558	  5.7200	  0.4600	   2.771	  33.475
  559	  5.7200	  0.4640	   2.776	  33.535
  560	  5.7400	  0.4660	   2.783	  33.595
  561	  5.7400	  0.4680	   2.786	  33.655
  562	  5.7400	  0.4720	   2.793	  33.715
  563	  5.7600	  0.4740	   2.797	  33.775
  564	  5.7600	  0.4760	   2.803	  33.835
  565	  5.7600	  0.4800	   2.807	  33.895
  566	  5.7800	  0.4840	   2.812	  33.955
  567	  5.7800	  0.4860	   2.817	  34.015
  568	  5.7800	  0.4880	   2.822	  34.075
  569	  5.8000	  0.4920	   2.827	  34.135
  570	  5.8000	  0.4940	   2.832	  34.195
  571	  5.8000	  0.4980	   2.837	  34.255
  572	  5.8200	  0.5000	   2.842	  34.315
  573	  5.8200	  0.5040	   2.847	  34.375
  574	  5.8200	  0.5060	   2.852	  34.435
  575	  5.8400	  0.5100	   2.857	  34.495
  576	  5.8400	  0.5120	   2.862	  34.555
  577	  5.8400	  0.5140	   2.867	  34.615
  578	  5.8400	  0.5180	   2.871	  34.675
  579	  5.8600	  0.5200	   2.876	  34.735
  580	  5.8600	  0.5240	   2.882	  34.795
  581	  5.8600	  0.5260	   2.886	  34.855
  582	  5.8800	  0.5300	   2.892	  34.915
  583	  5.9000	  0.5320	   2.898	  34.975
  584	  5.9000	  0.5340	   2.902	  35.035
  585	  5.9000	  0.5380	   2.908	  35.095
  586	  5.9000	  0.5400	   2.912	  35.155
  587	  5.9200	  0.5440	   2.918	  35.215
  588	  5.9200	  0.5460	   2.922	  35.275
  589	  5.9200	  0.5500	   2.928	  35.335
  590	  5.9400	  0.5520	   2.932	  35.395
  591	  5.9400	  0.5560	   2.938	  35.455
  592	  5.9400	  0.5580	   2.942	  35.515
  593	  5.9400	  0.5600	   2.947	  35.575
  594	  5.9600	  0.5640	   2.952	  35.635
  595	  5.9600	  0.5680	   2.957	  35.695
  596	  5.9800	  0.5700	   2.962	  35.755
  597	  5.9800	  0.5740	   2.967	  35.815
  598	  5.9800	  0.5760	   2.972	  35.875
  599	  6.0000	  0.5780	   2.977	  35.935
  600	  6.0000	  0.5820	   2.982	  35.995
  601	  6.0000	  0.5840	   2.987	  36.055
  602	  6.0200	  0.5880	   2.992	  36.115
  603	  6.0200	  0.5900	   2.997	  36.175
  604	  6.0200	  0.5940	   3.002	  36.235
  605	  6.0400	  0.5960	   3.007	  36.295
  606	  6.0400	  0.6000	   3.013	  36.355
  607	  6.0400	  0.6020	   3.017	  36.415
  608	  6.0400	  0.6040	   3.023	  36.475
  609	  6.0600	  0.6080	   3.027	  36.535
  610	  6.0600	  0.6120	   3.033	  36.595
  611	  6.0600	  0.6140	   3.037	  36.655
  612	  6.0800	  0.6160	   3.043	  36.715
  613	  6.0800	  0.6200	   3.047	  36.775
  614	  6.0800	  0.6220	   3.053	  36.835
  615	  6.1000	  0.6260	   3.057	  36.895
  616	  6.1000	  0.6280	   3.062	  36.955
  617	  6.1000	  0.6320	   3.067	  37.015
  618	  6.1200	  0.6340	   3.072	  37.075
  619	  6.1200	  0.6380	   3.077	  37.135
  620	  6.1200	  0.6400	   3.082	  37.195
  621	  6.1400	  0.6440	   3.087	  37.255
  622	  6.1400	  0.6460	   3.092	  37.315
  623	  6.1400	  0.6500	   3.097	  37.375
  624	  6.1600	  0.6520	   3.102	  37.435
  625	  6.1600	  0.6560	   3.107	  37.495
  626	  6.1600	  0.6580	   3.112	  37.555
  627	  6.1800	  0.6620	   3.117	  37.615
  628	  6.1800	  0.6640	   3.122	  37.675
  629	  6.1800	  0.6680	   3.127	  37.735
  630	  6.1800	  0.6700	   3.132	  37.795
  631	  6.2000	  0.6740	   3.138	  37.855
  632	  6.2000	  0.6760	   3.142	  37.915
  633	  6.2000	  0.6800	   3.148	  37.975
  634	  6.2200	  0.6820	   3.152	  38.035
  635	  6.2200	  0.6840	   3.158	  38.095
  636	  6.2200	  0.6880	   3.162	  38.155
  637	  6.2400	  0.6900	   3.168	  38.215
  638	  6.2400	  0.6940	   3.172	  38.275
  639	  6.2400	  0.6960	   3.178	  38.335
  640	  6.2600	  0.7000	   3.182	  38.395
  641	  6.2600	  0.7020	   3.188	  38.455
  642	  6.2600	  0.7060	   3.192	  38.515
  643	  6.2800	  0.7080	   3.197	  38.575
  644	  6.2800	  0.7120	   3.202	  38.635
  645	  6.2800	  0.7160	   3.207	  38.695
  646	  6.3000	  0.7180	   3.212	  38.755
  647	  6.3000	  0.7200	   3.217	  38.815
  648	  6.3000	  0.7240	   3.222	  38.875
  649	  6.3200	  0.7260	   3.227	  38.935
  650	  6.3200	  0.7300	   3.232	  38.995
  651	  6.3200	  0.7340	   3.237	  39.055
  652	  6.3200	  0.7360	   3.242	  39.115
  653	  6.3400	  0.7380	   3.247	  39.175
  654	  6.3400	  0.7420	   3.252	  39.235
  655	  6.3400	  0.7440	   3.257	  39.295
  656	  6.3400	  0.7480	   3.262	  39.355
  657	  6.3600	  0.7520	   3.267	  39.415
  658	  6.3600	  0.7540	   3.273	  39.475
  659	  6.3600	  0.7560	   3.277	  39.535
  660	  6.3800	  0.7600	   3.283	  39.595
  661	  6.3800	  0.7620	   3.287	  39.655
  662	  6.3800	  0.7660	   3.293	  39.715
  663	  6.4000	  0.7700	   3.297	  39.775
  664	  6.4000	  0.7720	   3.303	  39.835
  665	  6.4000	  0.7740	   3.307	  39.895
  666	  6.4200	  0.7780	   3.312	  39.955
  667	  6.4200	  0.7800	   3.317	  40.015
  668	  6.4200	  0.7840	   3.322	  40.075
  669	  6.4200	  0.7880	   3.327	  40.135
  670	  6.4400	  0.7900	   3.332	  40.195
  671	  6.4400	  0.7940	   3.337	  40.255
  672	  6.4400	  0.7960	   3.342	  40.315
  673	  6.4600	  0.8000	   3.347	  40.375
  674	  6.4600	  0.8020	   3.352	  40.435
  675	  6.4600	  0.8060	   3.357	  40.495
  676	  6.4800	  0.8080	   3.362	  40.555
  677	  6.4800	  0.8120	   3.367	  40.615
  678	  6.4800	  0.8140	   3.372	  40.675
  679	  6.4800	  0.8180	   3.377	  40.735
  680	  6.5000	  0.8200	   3.382	  40.795
  681	  6.5000	  0.8240	   3.387	  40.855
  682	  6.5000	  0.8260	   3.394	  40.915
  683	  6.5000	  0.8300	   3.398	  40.975
  684	  6.5200	  0.8320	   3.402	  41.035
  685	  6.5200	  0.8360	   3.408	  41.095
  686	  6.5200	  0.8380	   3.412	  41.155
  687	  6.5400	  0.8400	   3.418	  41.215
  688	  6.5400	  0.8440	   3.422	  41.275
  689	  6.5400	  0.8480	   3.429	  41.335
  690	  6.5600	  0.8500	   3.434	  41.395
  691	  6.5600	  0.8540	   3.439	  41.455
  692	  6.5600	  0.8560	   3.444	  41.515
  693	  6.5800	  0.8600	   3.449	  41.575
  694	  6.5800	  0.8620	   3.454	  41.635
  695	  6.5800	  0.8660	   3.459	  41.695
  696	  6.5800	  0.8680	   3.464	  41.755
  697	  6.6000	  0.8720	   3.469	  41.815
  698	  6.6000	  0.8760	   3.474	  41.875
  699	  6.6000	  0.8780	   3.479	  41.935
  700	  6.6200	  0.8820	   3.484	  41.995
  701	  6.6200	  0.8840	   3.487	  42.055
  702	  6.6200	  0.8880	   3.492	  42.115
  703	  6.6400	  0.8900	   3.497	  42.175
  704	  6.6400	  0.8940	   3.502	  42.235
  705	  6.6400	  0.8960	   3.507	  42.295
  706	  6.6400	  0.9000	   3.512	  42.355
  707	  6.6600	  0.9020	   3.517	  42.415
  708	  6.6600	  0.9060	   3.523	  42.475
  709	  6.6600	  0.9080	   3.527	  42.535
  710	  6.6600	  0.9120	   3.533	  42.595
  711	  6.6800	  0.9140	   3.537	  42.655
  712	  6.6800	  0.9180	   3.543	  42.715
  713	  6.6800	  0.9200	   3.547	  42.775
  714	  6.7000	  0.9240	   3.553	  42.835
  715	  6.7000	  0.9260	   3.557	  42.895
  716	  6.7000	  0.9280	   3.562	  42.955
  717	  6.7200	  0.9320	   3.567	  43.015
  718	  6.7200	  0.9340	   3.572	  43.075
  719	  6.7200	  0.9380	   3.577	  43.135
  720	  6.7400	  0.9420	   3.582	  43.195
  721	  6.7400	  0.9440	   3.587	  43.255
  722	  6.7400	  0.9480	   3.594	  43.315
  723	  6.7400	  0.9500	   3.599	  43.375
  724	  6.7600	  0.9540	   3.604	  43.435
  725	  6.7600	  0.9560	   3.609	  43.495
  726	  6.7600	  0.9600	   3.614	  43.555
  727	  6.7600	  0.9620	   3.619	  43.615
  728	  6.7800	  0.9660	   3.624	  43.675
  729	  6.7800	  0.9700	   3.629	  43.735
  730	  6.7800	  0.9720	   3.634	  43.795
  731	  6.8000	  0.9760	   3.639	  43.855
  732	  6.8000	  0.9780	   3.644	  43.915
  733	  6.8000	  0.9820	   3.649	  43.975
  734	  6.8000	  0.9840	   3.654	  44.035
  735	  6.8200	  0.9880	   3.659	  44.095
  736	  6.8200	  0.9920	   3.664	  44.155
  737	  6.8200	  0.9940	   3.669	  44.215
  738	  6.8400	  0.9980	   3.674	  44.275
  739	  6.8400	  1.0000	   3.679	  44.335
  740	  6.8400	  1.0046	   3.684	  44.395
  741	  6.8400	  1.0096	   3.689	  44.455
  742	  6.8400	  1.0146	   3.694	  44.515
  743	  6.8600	  1.0196	   3.699	  44.575
  744	  6.8600	  1.0246	   3.704	  44.635
  745	  6.8800	  1.0296	   3.709	  44.695
  746	  6.8800	  1.0346	   3.714	  44.755
  747	  6.8800	  1.0396	   3.719	  44.815
  748	  6.8800	  1.0446	   3.724	  44.875
  749	  6.8800	  1.0496	   3.729	  44.935
  750	  6.9000	  1.0546	   3.734	  44.995
  751	  6.9000	  1.0596	   3.739	  45.055
  752	  6.9000	  1.0646	   3.744	  45.115
  753	  6.9200	  1.0696	   3.749	  45.175
  754	  6.9200	  1.0746	   3.754	  45.235
  755	  6.9200	  1.0796	   3.759	  45.295
  756	  6.9200	  1.0846	   3.764	  45.355
  757	  6.9400	  1.0896	   3.769	  45.415
  758	  6.9400	  1.0946	   3.774	  45.475
  759	  6.9400	  1.0996	   3.779	  45.535
  760	  6.9600	  1.1046	   3.784	  45.595
  761	  6.9600	  1.1096	   3.789	  45.655
  762	  6.9600	  1.1133	   3.793	  45.715
  763	  6.9600	  1.1183	   3.797	  45.775
  764	  6.9800	  1.1233	   3.803	  45.835
  765	  6.9800	  1.1283	   3.807	  45.895
  766	  6.9800	  1.1346	   3.814	  45.955
  767	  6.9800	  1.1396	   3.819	  46.015
  768	  7.0000	  1.1433	   3.822	  46.075
  769	  7.0000	  1.1496	   3.829	  46.135
  770	  7.0000	  1.1546	   3.834	  46.195
  771	  7.0200	  1.1596	   3.839	  46.255
  772	  7.0200	  1.1646	   3.844	  46.315
  773	  7.0200	  1.1696	   3.849	  46.375
  774	  7.0200	  1.1746	   3.854	  46.435
  775	  7.0400	  1.1796	   3.859	  46.495
  776	  7.0400	  1.1846	   3.864	  46.555
  777	  7.0400	  1.1896	   3.869	  46.615
  778	  7.0400	  1.1933	   3.872	  46.675
  779	  7.0000	  1.1933	   3.872	  46.735
  780	  6.9600	  1.1933	   3.872	  46.795
  781	  6.9200	  1.1933	   3.872	  46.855
  782	  6.9200	  1.1933	   3.872	  46.915
  783	  6.9000	  1.1933	   3.872	  46.975
  784	  6.8800	  1.1933	   3.872	  47.035
  785	  6.8800	  1.1933	   3.872	  47.095
  786	  6.8600	  1.1933	   3.872	  47.155
  787	  6.8400	  1.1933	   3.872	  47.215
  788	  6.8400	  1.1933	   3.872	  47.275
  789	  6.8400	  1.1933	   3.872	  47.335
  790	  6.8400	  1.1933	   3.872	  47.395
  791	  6.8200	  1.1933	   3.872	  47.455
  792	  6.8200	  1.1933	   3.872	  47.515
  793	  6.8200	  1.1933	   3.872	  47.575
  794	  6.8200	  1.1933	   3.872	  47.635
  795	  6.8000	  1.1933	   3.872	  47.695
  796	  6.8000	  1.1933	   3.872	  47.755
  797	  6.8000	  1.1933	   3.872	  47.815
  798	  6.8000	  1.1933	   3.872	  47.875
  799	  6.8000	  1.1933	   3.872	  47.935
  800	  6.8000	  1.1933	   3.872	  47.995
  801	  6.8000	  1.1933	   3.872	  48.055
  802	  6.7800	  1.1933	   3.872	  48.115
  803	  6.7800	  1.1933	   3.872	  48.175
  804	  6.7800	  1.1933	   3.872	  48.235
  805	  6.7800	  1.1933	   3.872	  48.295
  806	  6.7800	  1.1933	   3.872	  48.355
  807	  6.7800	  1.1933	   3.872	  48.415
  808	  6.7800	  1.1933	   3.872	  48.475
  809	  6.7800	  1.1933	   3.872	  48.535
  810	  6.7800	  1.1933	   3.872	  48.595
  811	  6.7800	  1.1933	   3.872	  48.655
  812	  6.7600	  1.1933	   3.872	  48.715
  813	  6.7800	  1.1933	   3.872	  48.775
  814	  6.7600	  1.1933	   3.872	  48.835
  815	  6.7600	  1.1933	   3.872	  48.895
  816	  6.7600	  1.1933	   3.872	  48.955
  817	  6.7600	  1.1933	   3.872	  49.015
  818	  6.7600	  1.1933	   3.872	  49.075
  819	  6.7600	  1.1933	   3.872	  49.135
  820	  6.7600	  1.1933	   3.872	  49.195
  821	  6.7600	  1.1933	   3.872	  49.255
  822	  6.7600	  1.1933	   3.872	  49.315
  823	  6.7600	  1.1933	   3.872	  49.375
  824	  6.7600	  1.1933	   3.872	  49.435
  825	  6.7600	  1.1933	   3.872	  49.495
  826	  6.7600	  1.1933	   3.872	  49.555
  827	  6.7600	  1.1933	   3.872	  49.615
  828	  6.7600	  1.1933	   3.872	  49.675
  829	  6.7600	  1.1933	   3.872	  49.735
  830	  6.7400	  1.1933	   3.872	  49.795
  831	  6.7400	  1.1933	   3.872	  49.855
  832	  6.7400	  1.1933	   3.872	  49.915
  833	  6.7400	  1.1933	   3.872	  49.975
  834	  6.7400	  1.1933	   3.872	  50.035
  835	  6.7400	  1.1933	   3.872	  50.095
  836	  6.7400	  1.1933	   3.872	  50.155
  837	  6.7400	  1.1933	   3.872	  50.215
  838	  6.7400	  1.1933	   3.872	  50.275
  839	  6.7400	  1.1933	   3.872	  50.335
  840	  6.7400	  1.1933	   3.872	  50.395
  841	  6.7400	  1.1933	   3.872	  50.455
  842	  6.7400	  1.1933	   3.872	  50.515
  843	  6.7400	  1.1933	   3.872	  50.575
  844	  6.7400	  1.1933	   3.872	  50.635
  845	  6.7400	  1.1933	   3.872	  50.695
  846	  6.7400	  1.1933	   3.872	  50.755
  847	  6.7400	  1.1933	   3.872	  50.815
  848	  6.7400	  1.1933	   3.872	  50.875
  849	  6.7400	  1.1933	   3.872	  50.935
  850	  6.7400	  1.1933	   3.872	  50.995
  851	  6.7400	  1.1933	   3.872	  51.055
  852	  6.7400	  1.1933	   3.872	  51.115
  853	  6.7400	  1.1933	   3.872	  51.175
  854	  6.7400	  1.1933	   3.872	  51.235
  855	  6.7400	  1.1933	   3.872	  51.295
  856	  6.7400	  1.1933	   3.872	  51.355
  857	  6.7400	  1.1933	   3.872	  51.415
  858	  6.7400	  1.1933	   3.872	  51.475
  859	  6.7200	  1.1933	   3.872	  51.535
  860	  6.7200	  1.1933	   3.872	  51.595
  861	  6.7400	  1.1933	   3.872	  51.655
  862	  6.7400	  1.1933	   3.872	  51.715
  863	  6.7200	  1.1933	   3.872	  51.775
  864	  6.7200	  1.1933	   3.872	  51.835
  865	  6.7200	  1.1933	   3.872	  51.895
  866	  6.7400	  1.1933	   3.872	  51.955
  867	  6.7200	  1.1933	   3.872	  52.015
  868	  6.7200	  1.1933	   3.872	  52.075
  869	  6.7200	  1.1933	   3.872	  52.135
  870	  6.7200	  1.1933	   3.872	  52.195
  871	  6.7200	  1.1933	   3.872	  52.255
  872	  6.7200	  1.1933	   3.872	  52.315
  873	  6.7200	  1.1933	   3.872	  52.375
  874	  6.7200	  1.1933	   3.872	  52.435
  875	  6.7200	  1.1933	   3.872	  52.495
  876	  6.7200	  1.1933	   3.872	  52.555
  877	  6.7200	  1.1933	   3.872	  52.615
  878	  6.7200	  1.1933	   3.872	  52.675
  879	  6.7200	  1.1933	   3.872	  52.735
  880	  6.7200	  1.1933	   3.872	  52.795
  881	  6.7200	  1.1933	   3.872	  52.855
  882	  6.7200	  1.1933	   3.872	  52.915
  883	  6.7200	  1.1933	   3.872	  52.975
  884	  6.7200	  1.1933	   3.872	  53.035
  885	  6.7200	  1.1933	   3.872	  53.095
  886	  6.7200	  1.1933	   3.872	  53.155
  887	  6.7200	  1.1933	   3.872	  53.215
  888	  6.7200	  1.1933	   3.872	  53.275
  889	  6.7200	  1.1933	   3.872	  53.335
  890	  6.7200	  1.1933	   3.872	  53.395
  891	  6.7200	  1.1933	   3.872	  53.455
  892	  6.7200	  1.1933	   3.872	  53.515
  893	  6.7200	  1.1933	   3.872	  53.575
  894	  6.7200	  1.1933	   3.872	  53.635
  895	  6.7200	  1.1933	   3.872	  53.695
  896	  6.7200	  1.1933	   3.872	  53.755
  897	  6.7200	  1.1933	   3.872	  53.815
  898	  6.7200	  1.1933	   3.872	  53.875
  899	  6.7200	  1.1933	   3.872	  53.935
  900	  6.7200	  1.1933	   3.872	  53.995
  901	  6.7200	  1.1933	   3.872	  54.055
  902	  6.7200	  1.1933	   3.872	  54.115
  903	  6.7200	  1.1933	   3.872	  54.175
  904	  6.7200	  1.1933	   3.872	  54.235
  905	  6.7200	  1.1933	   3.872	  54.295
  906	  6.7200	  1.1933	   3.872	  54.355
  907	  6.7200	  1.1933	   3.872	  54.415
  908	  6.7200	  1.1933	   3.872	  54.475
  909	  6.7200	  1.1933	   3.872	  54.535
  910	  6.7200	  1.1933	   3.872	  54.595
  911	  6.7200	  1.1933	   3.872	  54.655
  912	  6.7200	  1.1933	   3.872	  54.715
  913	  6.7200	  1.1933	   3.872	  54.775
  914	  6.7200	  1.1933	   3.872	  54.835
  915	  6.7200	  1.1933	   3.872	  54.895
  916	  6.7200	  1.1933	   3.872	  54.955
  917	  6.7200	  1.1933	   3.872	  55.015
  918	  6.7200	  1.1933	   3.872	  55.075
  919	  6.7200	  1.1933	   3.872	  55.135
  920	  6.7200	  1.1933	   3.872	  55.195
  921	  6.7200	  1.1933	   3.872	  55.255
  922	  6.7200	  1.1933	   3.872	  55.315
  923	  6.7000	  1.1933	   3.872	  55.375
  924	  6.7000	  1.1933	   3.872	  55.435
  925	  6.7200	  1.1933	   3.872	  55.495
  926	  6.7000	  1.1933	   3.872	  55.555
  927	  6.7000	  1.1933	   3.872	  55.615
  928	  6.7200	  1.1933	   3.872	  55.675
  929	  6.7000	  1.1933	   3.872	  55.735
  930	  6.7000	  1.1933	   3.872	  55.795
  931	  6.7000	  1.1933	   3.872	  55.855
  932	  6.7000	  1.1933	   3.872	  55.915
  933	  6.7000	  1.1933	   3.872	  55.975
  934	  6.7200	  1.1933	   3.872	  56.035
  935	  6.7000	  1.1933	   3.872	  56.095
  936	  6.7000	  1.1933	   3.872	  56.155
  937	  6.7000	  1.1933	   3.872	  56.215
  938	  6.7000	  1.1933	   3.872	  56.275
  939	  6.7000	  1.1933	   3.872	  56.335
  940	  6.7000	  1.1933	   3.872	  56.395
  941	  6.7000	  1.1933	   3.872	  56.455
  942	  6.7000	  1.1933	   3.872	  56.515
  943	  6.7000	  1.1933	   3.872	  56.575
  944	  6.7000	  1.1933	   3.872	  56.635
  945	  6.7000	  1.1933	   3.872	  56.695
  946	  6.7000	  1.1933	   3.872	  56.755
  947	  6.7000	  1.1933	   3.872	  56.815
  948	  6.7000	  1.1933	   3.872	  56.875
  949	  6.7000	  1.1933	   3.872	  56.935
  950	  6.7000	  1.1933	   3.872	  56.995
  951	  6.7000	  1.1933	   3.872	  57.055
  952	  6.7000	  1.1933	   3.872	  57.115
  953	  6.7000	  1.1933	   3.872	  57.175
  954	  6.7000	  1.1933	   3.872	  57.235
  955	  6.7000	  1.1933	   3.872	  57.295
  956	  6.7000	  1.1946	   3.874	  57.355
  957	  6.7000	  1.1946	   3.874	  57.415
  958	  6.7000	  1.1946	   3.874	  57.475
  959	  6.7000	  1.1946	   3.874	  57.535
  960	  6.7000	  1.1946	   3.874	  57.595
  961	  6.7000	  1.1946	   3.874	  57.655
  962	  6.7000	  1.1946	   3.874	  57.715
  963	  6.7000	  1.1946	   3.874	  57.775
  964	  6.7000	  1.1946	   3.874	  57.835
  965	  6.7000	  1.1946	   3.874	  57.895
  966	  6.7000	  1.1946	   3.874	  57.955
  967	  6.7000	  1.1946	   3.874	  58.015
  968	  6.7000	  1.1946	   3.874	  58.075
  969	  6.7000	  1.1946	   3.874	  58.135
  970	  6.7000	  1.1946	   3.874	  58.195
  971	  6.7000	  1.1946	   3.874	  58.255
  972	  6.7000	  1.1946	   3.874	  58.315
  973	  6.7000	  1.1946	   3.874	  58.375
  974	  6.7000	  1.1946	   3.874	  58.435
  975	  6.7000	  1.1946	   3.874	  58.495
  976	  6.7000	  1.1946	   3.874	  58.555
  977	  6.7000	  1.1946	   3.874	  58.615
  978	  6.7000	  1.1946	   3.874	  58.675
  979	  6.7000	  1.1946	   3.874	  58.735
  980	  6.7000	  1.1946	   3.874	  58.795
  981	  6.7000	  1.1946	   3.874	  58.855
  982	  6.7000	  1.1946	   3.874	  58.915
  983	  6.7000	  1.1946	   3.874	  58.975
  984	  6.7000	  1.1946	   3.874	  59.035
  985	  6.7000	  1.1946	   3.874	  59.095
  986	  6.7000	  1.1946	   3.874	  59.155
  987	  6.7000	  1.1946	   3.874	  59.215
  988	  6.7000	  1.1946	   3.874	  59.275
  989	  6.7000	  1.1946	   3.874	  59.335
  990	  6.7000	  1.1946	   3.874	  59.395
  991	  6.7000	  1.1946	   3.874	  59.455
  992	  6.7000	  1.1946	   3.874	  59.515
  993	  6.7000	  1.1946	   3.874	  59.575
  994	  6.7000	  1.1946	   3.874	  59.635
  995	  6.7000	  1.1946	   3.874	  59.695
  996	  6.7000	  1.1946	   3.874	  59.755
  997	  6.7000	  1.1946	   3.874	  59.815
  998	  6.7000	  1.1946	   3.874	  59.875
  999	  6.7000	  1.1946	   3.874	  59.935
 1000	  6.7000	  1.1946	   3.874	  59.995
 1001	  6.7000	  1.1946	   3.874	  60.055
 1002	  6.7000	  1.1946	   3.874	  60.115
 1003	  6.7000	  1.1946	   3.874	  60.175
 1004	  6.7000	  1.1946	   3.874	  60.235
 1005	  6.7000	  1.1946	   3.874	  60.295
 1006	  6.7000	  1.1946	   3.874	  60.355
 1007	  6.7000	  1.1946	   3.874	  60.415
 1008	  6.7000	  1.1946	   3.874	  60.475
 1009	  6.7000	  1.1946	   3.874	  60.535
 1010	  6.7000	  1.1946	   3.874	  60.595
 1011	  6.7000	  1.1946	   3.874	  60.655
 1012	  6.7000	  1.1946	   3.874	  60.715
 1013	  6.7000	  1.1946	   3.874	  60.775
 1014	  6.7000	  1.1946	   3.874	  60.835
 1015	  6.7000	  1.1946	   3.874	  60.895
 1016	  6.7000	  1.1946	   3.874	  60.955
 1017	  6.7000	  1.1946	   3.874	  61.015
 1018	  6.7000	  1.1946	   3.874	  61.075
 1019	  6.7000	  1.1946	   3.874	  61.135
 1020	  6.7000	  1.1946	   3.874	  61.195
 1021	  6.7000	  1.1946	   3.874	  61.255
 1022	  6.7000	  1.1946	   3.874	  61.315
 1023	  6.7000	  1.1946	   3.874	  61.375
 1024	  6.7000	  1.1946	   3.874	  61.435
 1025	  6.6800	  1.1946	   3.874	  61.495
 1026	  6.7000	  1.1946	   3.874	  61.555
 1027	  6.7000	  1.1946	   3.874	  61.615
 1028	  6.7000	  1.1946	   3.874	  61.675
 1029	  6.7000	  1.1946	   3.874	  61.735
 1030	  6.7000	  1.1946	   3.874	  61.795
 1031	  6.7000	  1.1946	   3.874	  61.855
 1032	  6.7000	  1.1946	   3.874	  61.915
 1033	  6.7000	  1.1946	   3.874	  61.975
 1034	  6.7000	  1.1946	   3.874	  62.035
 1035	  6.6800	  1.1946	   3.874	  62.095
 1036	  6.7000	  1.1946	   3.874	  62.155
 1037	  6.7000	  1.1946	   3.874	  62.215
 1038	  6.7000	  1.1946	   3.874	  62.275
 1039	  6.7000	  1.1946	   3.874	  62.335
 1040	  6.7000	  1.1946	   3.874	  62.395
 1041	  6.7000	  1.1946	   3.874	  62.455
 1042	  6.7000	  1.1946	   3.874	  62.515
 1043	  6.7000	  1.1946	   3.874	  62.575
 1044	  6.7000	  1.1946	   3.874	  62.635
 1045	  6.7000	  1.1946	   3.874	  62.695
 1046	  6.7000	  1.1946	   3.874	  62.755
 1047	  6.7000	  1.1946	   3.874	  62.815
 1048	  6.7000	  1.1946	   3.874	  62.875
 1049	  6.7000	  1.1946	   3.874	  62.935
 1050	  6.6800	  1.1946	   3.874	  62.995
 1051	  6.7000	  1.1946	   3.874	  63.055
 1052	  6.6800	  1.1946	   3.874	  63.115
 1053	  6.6800	  1.1946	   3.874	  63.175
 1054	  6.6800	  1.1946	   3.874	  63.235
 1055	  6.6800	  1.1946	   3.874	  63.295
 1056	  6.7000	  1.1946	   3.874	  63.355
 1057	  6.7000	  1.1946	   3.874	  63.415
 1058	  6.7000	  1.1946	   3.874	  63.475
 1059	  6.6800	  1.1946	   3.874	  63.535
 1060	  6.6800	  1.1946	   3.874	  63.595
 1061	  6.6800	  1.1946	   3.874	  63.655
 1062	  6.6800	  1.1946	   3.874	  63.715
 1063	  6.6800	  1.1946	   3.874	  63.775
 1064	  6.7000	  1.1946	   3.874	  63.835
 1065	  6.6800	  1.1946	   3.874	  63.895
 1066	  6.6800	  1.1946	   3.874	  63.955
 1067	  6.6800	  1.1946	   3.874	  64.015
 1068	  6.6800	  1.1946	   3.874	  64.075
 1069	  6.6800	  1.1946	   3.874	  64.135
 1070	  6.6800	  1.1946	   3.874	  64.195
 1071	  6.6800	  1.1946	   3.874	  64.255
 1072	  6.6800	  1.1946	   3.874	  64.315
 1073	  6.6800	  1.1946	   3.874	  64.375
 1074	  6.6800	  1.1946	   3.874	  64.435
 1075	  6.6800	  1.1946	   3.874	  64.495
 1076	  6.6800	  1.1946	   3.874	  64.555
 1077	  6.6800	  1.1946	   3.874	  64.615
 1078	  6.6800	  1.1946	   3.874	  64.675
 1079	  6.6800	  1.1946	   3.874	  64.735
 1080	  6.6800	  1.1946	   3.874	  64.795
 1081	  6.6800	  1.1946	   3.874	  64.855
 1082	  6.6800	  1.1946	   3.874	  64.915
 1083	  6.6800	  1.1946	   3.874	  64.975
 1084	  6.6800	  1.1946	   3.874	  65.035
 1085	  6.6800	  1.1946	   3.874	  65.095
 1086	  6.6800	  1.1946	   3.874	  65.155
 1087	  6.6800	  1.1946	   3.874	  65.215
 1088	  6.6800	  1.1946	   3.874	  65.275
 1089	  6.6800	  1.1946	   3.874	  65.335
 1090	  6.6800	  1.1946	   3.874	  65.395
 1091	  6.7000	  1.1946	   3.874	  65.455
 1092	  6.6800	  1.1946	   3.874	  65.515
 1093	  6.6800	  1.1946	   3.874	  65.575
 1094	  6.6800	  1.1946	   3.874	  65.635
 1095	  6.6800	  1.1946	   3.874	  65.695
 1096	  6.6800	  1.1946	   3.874	  65.755
 1097	  6.6800	  1.1946	   3.874	  65.815
 1098	  6.6800	  1.1946	   3.874	  65.875
 1099	  6.6800	  1.1946	   3.874	  65.935
 1100	  6.6800	  1.1946	   3.874	  65.995
 1101	  6.6800	  1.1946	   3.874	  66.055
 1102	  6.6800	  1.1946	   3.874	  66.115
 1103	  6.6800	  1.1946	   3.874	  66.175
 1104	  6.6800	  1.1946	   3.874	  66.235
 1105	  6.6800	  1.1946	   3.874	  66.295
 1106	  6.6800	  1.1946	   3.874	  66.355
 1107	  6.6800	  1.1946	   3.874	  66.415
 1108	  6.6800	  1.1946	   3.874	  66.475
 1109	  6.6800	  1.1946	   3.874	  66.535
 1110	  6.6800	  1.1946	   3.874	  66.595
 1111	  6.6800	  1.1946	   3.874	  66.655
 1112	  6.6800	  1.1946	   3.874	  66.715
 1113	  6.6800	  1.1946	   3.874	  66.775
 1114	  6.6800	  1.1946	   3.874	  66.835
 1115	  6.6800	  1.1946	   3.874	  66.895
 1116	  6.6800	  1.1946	   3.874	  66.955
 1117	  6.6800	  1.1946	   3.874	  67.015
 1118	  6.6800	  1.1946	   3.874	  67.075
 1119	  6.6800	  1.1946	   3.874	  67.135
 1120	  6.6800	  1.1946	   3.874	  67.195
 1121	  6.6800	  1.1946	   3.874	  67.255
 1122	  6.6800	  1.1946	   3.874	  67.315
 1123	  6.6800	  1.1946	   3.874	  67.375
 1124	  6.6800	  1.1946	   3.874	  67.435
 1125	  6.6800	  1.1946	   3.874	  67.495
 1126	  6.6800	  1.1946	   3.874	  67.555
 1127	  6.6800	  1.1946	   3.874	  67.615
 1128	  6.6800	  1.1946	   3.874	  67.675
 1129	  6.6800	  1.1946	   3.874	  67.735
 1130	  6.6800	  1.1946	   3.874	  67.795
 1131	  6.6800	  1.1946	   3.874	  67.855
 1132	  6.6800	  1.1946	   3.874	  67.915
 1133	  6.6800	  1.1946	   3.874	  67.975
 1134	  6.6800	  1.1946	   3.874	  68.035
 1135	  6.6800	  1.1946	   3.874	  68.095
 1136	  6.6800	  1.1946	   3.874	  68.155
 1137	  6.6800	  1.1946	   3.874	  68.215
 1138	  6.6800	  1.1946	   3.874	  68.275
 1139	  6.6800	  1.1946	   3.874	  68.335
 1140	  6.6800	  1.1946	   3.874	  68.395
 1141	  6.6800	  1.1946	   3.874	  68.455
 1142	  6.6800	  1.1946	   3.874	  68.515
 1143	  6.6800	  1.1946	   3.874	  68.575
 1144	  6.6800	  1.1946	   3.874	  68.635
 1145	  6.6800	  1.1946	   3.874	  68.695
 1146	  6.6800	  1.1946	   3.874	  68.755
 1147	  6.6800	  1.1946	   3.874	  68.815
 1148	  6.6800	  1.1946	   3.874	  68.875
 1149	  6.6800	  1.1946	   3.874	  68.935
 1150	  6.6800	  1.1946	   3.874	  68.995
 1151	  6.6800	  1.1946	   3.874	  69.055
 1152	  6.6800	  1.1946	   3.874	  69.115
 1153	  6.6800	  1.1946	   3.874	  69.175
 1154	  6.6800	  1.1946	   3.874	  69.235
 1155	  6.6800	  1.1946	   3.874	  69.295
 1156	  6.6800	  1.1946	   3.874	  69.355
 1157	  6.6800	  1.1946	   3.874	  69.415
 1158	  6.6800	  1.1946	   3.874	  69.475
 1159	  6.6800	  1.1946	   3.874	  69.535
 1160	  6.6800	  1.1946	   3.874	  69.595
 1161	  6.6800	  1.1946	   3.874	  69.655
 1162	  6.6800	  1.1946	   3.874	  69.715
 1163	  6.6800	  1.1946	   3.874	  69.775
 1164	  6.6800	  1.1946	   3.874	  69.835
 1165	  6.6800	  1.1946	   3.874	  69.895
 1166	  6.6800	  1.1946	   3.874	  69.955
 1167	  6.6800	  1.1946	   3.874	  70.015
 1168	  6.6800	  1.1946	   3.874	  70.075
 1169	  6.6800	  1.1946	   3.874	  70.135
 1170	  6.6800	  1.1946	   3.874	  70.195
 1171	  6.6800	  1.1946	   3.874	  70.255
 1172	  6.6800	  1.1958	   3.875	  70.315
 1173	  6.7600	  1.2008	   3.880	  70.375
 1174	  6.8800	  1.2058	   3.885	  70.435
 1175	  6.9800	  1.2108	   3.890	  70.495
 1176	  7.0800	  1.2158	   3.895	  70.555
 1177	  7.1400	  1.2208	   3.900	  70.615
 1178	  7.1800	  1.2258	   3.905	  70.675
 1179	  7.2200	  1.2308	   3.910	  70.735
 1180	  7.2600	  1.2358	   3.915	  70.795
 1181	  7.2800	  1.2408	   3.920	  70.855
 1182	  7.3200	  1.2458	   3.925	  70.915
 1183	  7.3200	  1.2508	   3.930	  70.975
 1184	  7.3400	  1.2558	   3.935	  71.035
 1185	  7.3400	  1.2608	   3.940	  71.095
 1186	  7.3400	  1.2658	   3.945	  71.155
 1187	  7.3600	  1.2708	   3.950	  71.215
 1188	  7.3600	  1.2758	   3.955	  71.275
 1189	  7.3800	  1.2808	   3.960	  71.335
 1190	  7.4000	  1.2858	   3.965	  71.395
 1191	  7.4000	  1.2908	   3.970	  71.455
 1192	  7.4200	  1.2958	   3.975	  71.515
 1193	  7.4200	  1.3008	   3.980	  71.575
 1194	  7.4400	  1.3058	   3.985	  71.635
 1195	  7.4600	  1.3108	   3.990	  71.695
 1196	  7.4800	  1.3158	   3.995	  71.755
 1197	  7.4800	  1.3208	   4.000	  71.815
 1198	  7.5000	  1.3258	   4.005	  71.875
 1199	  7.5200	  1.3308	   4.010	  71.935
 1200	  7.5200	  1.3358	   4.015	  71.995
 1201	  7.5400	  1.3408	   4.020	  72.055
 1202	  7.5400	  1.3458	   4.025	  72.115
 1203	  7.5400	  1.3508	   4.030	  72.175
 1204	  7.5000	  1.3558	   4.035	  72.235
 1205	  7.4600	  1.3608	   4.040	  72.295
 1206	  7.4400	  1.3658	   4.045	  72.355
 1207	  7.4200	  1.3708	   4.050	  72.415
 1208	  7.4200	  1.3758	   4.055	  72.475
 1209	  7.4200	  1.3808	   4.060	  72.535
 1210	  7.4200	  1.3858	   4.065	  72.595
 1211	  7.4200	  1.3908	   4.070	  72.655
 1212	  7.4200	  1.3958	   4.075	  72.715
 1213	  7.4200	  1.4008	   4.080	  72.775
 1214	  7.4200	  1.4058	   4.085	  72.835
 1215	  7.4200	  1.4108	   4.090	  72.895
 1216	  7.4200	  1.4158	   4.095	  72.955
 1217	  7.4200	  1.4208	   4.100	  73.015
 1218	  7.4200	  1.4258	   4.105	  73.075
 1219	  7.4200	  1.4308	   4.110	  73.135
 1220	  7.4200	  1.4358	   4.115	  73.195
 1221	  7.4200	  1.4408	   4.120	  73.255
 1222	  7.4200	  1.4458	   4.125	  73.315
 1223	  7.4200	  1.4508	   4.130	  73.375
 1224	  7.4200	  1.4558	   4.135	  73.435
 1225	  7.4200	  1.4608	   4.140	  73.495
 1226	  7.4200	  1.4658	   4.145	  73.555
 1227	  7.4200	  1.4708	   4.150	  73.615
 1228	  7.4200	  1.4758	   4.155	  73.675
 1229	  7.4200	  1.4808	   4.160	  73.735
 1230	  7.4200	  1.4858	   4.165	  73.795
 1231	  7.4200	  1.4908	   4.170	  73.855
 1232	  7.4200	  1.4958	   4.175	  73.915
 1233	  7.4200	  1.5008	   4.180	  73.975
 1234	  7.4200	  1.5058	   4.185	  74.035
 1235	  7.4200	  1.5108	   4.190	  74.095
 1236	  7.4000	  1.5158	   4.195	  74.155
 1237	  7.4000	  1.5208	   4.200	  74.215
 1238	  7.4200	  1.5258	   4.205	  74.275
 1239	  7.4200	  1.5308	   4.210	  74.335
 1240	  7.4200	  1.5358	   4.215	  74.395
 1241	  7.4200	  1.5408	   4.220	  74.455
 1242	  7.4200	  1.5458	   4.225	  74.515
 1243	  7.4200	  1.5508	   4.230	  74.575
 1244	  7.4200	  1.5558	   4.235	  74.635
 1245	  7.4200	  1.5608	   4.240	  74.695
 1246	  7.4200	  1.5658	   4.245	  74.755
 1247	  7.4200	  1.5708	   4.250	  74.815
 1248	  7.4200	  1.5758	   4.255	  74.875
 1249	  7.4400	  1.5808	   4.260	  74.935
 1250	  7.4400	  1.5858	   4.265	  74.995
 1251	  7.4400	  1.5908	   4.270	  75.055
 1252	  7.4400	  1.5958	   4.275	  75.115
 1253	  7.4400	  1.6008	   4.280	  75.175
 1254	  7.4400	  1.6058	   4.285	  75.235
 1255	  7.4400	  1.6108	   4.290	  75.295
 1256	  7.4400	  1.6158	   4.295	  75.355
 1257	  7.4400	  1.6208	   4.300	  75.415
 1258	  7.4400	  1.6258	   4.305	  75.475
 1259	  7.4400	  1.6308	   4.310	  75.535
 1260	  7.4400	  1.6358	   4.315	  75.595
 1261	  7.4400	  1.6408	   4.320	  75.655
 1262	  7.4400	  1.6458	   4.325	  75.715
 1263	  7.4400	  1.6508	   4.330	  75.775
 1264	  7.4400	  1.6558	   4.335	  75.835
 1265	  7.4400	  1.6608	   4.340	  75.895
 1266	  7.4400	  1.6658	   4.345	  75.955
 1267	  7.4400	  1.6708	   4.350	  76.015
 1268	  7.4200	  1.6758	   4.355	  76.075
 1269	  7.4200	  1.6808	   4.360	  76.135
 1270	  7.4000	  1.6858	   4.365	  76.195
 1271	  7.4000	  1.6908	   4.370	  76.255
 1272	  7.4000	  1.6958	   4.375	  76.315
 1273	  7.4200	  1.7008	   4.380	  76.375
 1274	  7.4200	  1.7058	   4.385	  76.435
 1275	  7.4400	  1.7108	   4.390	  76.495
 1276	  7.4800	  1.7158	   4.395	  76.555
 1277	  7.5000	  1.7208	   4.400	  76.615
 1278	  7.5200	  1.7258	   4.405	  76.675
 1279	  7.5400	  1.7308	   4.410	  76.735
 1280	  7.5600	  1.7358	   4.415	  76.795
 1281	  7.5800	  1.7408	   4.420	  76.855
 1282	  7.6000	  1.7458	   4.425	  76.915
 1283	  7.6200	  1.7508	   4.430	  76.975
 1284	  7.6400	  1.7558	   4.435	  77.035
 1285	  7.6400	  1.7608	   4.440	  77.095
 1286	  7.6600	  1.7658	   4.445	  77.155
 1287	  7.6800	  1.7708	   4.450	  77.215
 1288	  7.6800	  1.7758	   4.455	  77.275
 1289	  7.6800	  1.7808	   4.460	  77.335
 1290	  7.7000	  1.7858	   4.465	  77.395
 1291	  7.7000	  1.7908	   4.470	  77.455
 1292	  7.7200	  1.7958	   4.475	  77.515
 1293	  7.7200	  1.8008	   4.480	  77.575
 1294	  7.7200	  1.8058	   4.485	  77.635
 1295	  7.7200	  1.8108	   4.490	  77.695
 1296	  7.7400	  1.8158	   4.495	  77.755
 1297	  7.7400	  1.8208	   4.500	  77.815
 1298	  7.7400	  1.8258	   4.505	  77.875
 1299	  7.7400	  1.8308	   4.510	  77.935
 1300	  7.7400	  1.8358	   4.515	  77.995
 1301	  7.7600	  1.8408	   4.520	  78.055
 1302	  7.7600	  1.8458	   4.525	  78.115
 1303	  7.7600	  1.8508	   4.530	  78.175
 1304	  7.7600	  1.8558	   4.535	  78.235
 1305	  7.7600	  1.8608	   4.540	  78.295
 1306	  7.7600	  1.8658	   4.545	  78.355
 1307	  7.7600	  1.8708	   4.550	  78.415
 1308	  7.7800	  1.8758	   4.555	  78.475
 1309	  7.7800	  1.8808	   4.560	  78.535
 1310	  7.7800	  1.8858	   4.565	  78.595
 1311	  7.7800	  1.8921	   4.571	  78.655
 1312	  7.7800	  1.8958	   4.575	  78.715
 1313	  7.7800	  1.9021	   4.581	  78.775
 1314	  7.7800	  1.9058	   4.585	  78.835
 1315	  7.7800	  1.9121	   4.591	  78.895
 1316	  7.7800	  1.9158	   4.595	  78.955
 1317	  7.7800	  1.9221	   4.601	  79.015
 1318	  7.7800	  1.9258	   4.605	  79.075
 1319	  7.7800	  1.9321	   4.611	  79.135
 1320	  7.7800	  1.9358	   4.615	  79.195
 1321	  7.7800	  1.9421	   4.621	  79.255
 1322	  7.7800	  1.9458	   4.625	  79.315
 1323	  7.7800	  1.9521	   4.631	  79.375
 1324	  7.7800	  1.9558	   4.635	  79.435
 1325	  7.7800	  1.9621	   4.641	  79.495
 1326	  7.7800	  1.9671	   4.646	  79.555
 1327	  7.7800	  1.9721	   4.651	  79.615
 1328	  7.7800	  1.9771	   4.656	  79.675
 1329	  7.7800	  1.9821	   4.661	  79.735
 1330	  7.7800	  1.9871	   4.666	  79.795
 1331	  7.7800	  1.9921	   4.671	  79.855
 1332	  7.7800	  1.9971	   4.676	  79.915
 1333	  7.7800	  2.0021	   4.681	  79.975
 1334	  7.7800	  2.0071	   4.686	  80.035
 1335	  7.8000	  2.0121	   4.691	  80.095
 1336	  7.8000	  2.0171	   4.696	  80.155
 1337	  7.8000	  2.0221	   4.701	  80.215
 1338	  7.7800	  2.0271	   4.706	  80.275
 1339	  7.7800	  2.0321	   4.711	  80.335
 1340	  7.7800	  2.0371	   4.716	  80.395
 1341	  7.8000	  2.0421	   4.721	  80.455
 1342	  7.8000	  2.0471	   4.726	  80.515
 1343	  7.8200	  2.0508	   4.730	  80.575
 1344	  7.8200	  2.0558	   4.735	  80.635
 1345	  7.8600	  2.0608	   4.740	  80.695
 1346	  7.8800	  2.0658	   4.745	  80.755
 1347	  7.9000	  2.0708	   4.750	  80.815
 1348	  7.9000	  2.0758	   4.755	  80.875
 1349	  7.9200	  2.0808	   4.760	  80.935
 1350	  7.9400	  2.0858	   4.765	  80.995
 1351	  7.9400	  2.0908	   4.770	  81.055
 1352	  7.9600	  2.0958	   4.775	  81.115
 1353	  7.9600	  2.1008	   4.780	  81.175
 1354	  7.9800	  2.1058	   4.785	  81.235
 1355	  7.9800	  2.1108	   4.790	  81.295
 1356	  7.9800	  2.1158	   4.795	  81.355
 1357	  7.9800	  2.1208	   4.800	  81.415
 1358	  7.9800	  2.1258	   4.805	  81.475
 1359	  8.0000	  2.1308	   4.810	  81.535
 1360	  8.0000	  2.1358	   4.815	  81.595
 1361	  8.0200	  2.1408	   4.820	  81.655
 1362	  8.0200	  2.1458	   4.825	  81.715
 1363	  8.0400	  2.1508	   4.830	  81.775
 1364	  8.0400	  2.1558	   4.835	  81.835
 1365	  8.0600	  2.1608	   4.840	  81.895
 1366	  8.0600	  2.1658	   4.845	  81.955
 1367	  8.0600	  2.1708	   4.850	  82.015
 1368	  8.0800	  2.1758	   4.855	  82.075
 1369	  8.0800	  2.1808	   4.860	  82.135
 1370	  8.0800	  2.1858	   4.865	  82.195
 1371	  8.0800	  2.1908	   4.870	  82.255
 1372	  8.0800	  2.1958	   4.875	  82.315
 1373	  8.1000	  2.2008	   4.880	  82.375
 1374	  8.1000	  2.2058	   4.885	  82.435
 1375	  8.1000	  2.2108	   4.890	  82.495
 1376	  8.0800	  2.2158	   4.895	  82.555
 1377	  8.0800	  2.2208	   4.900	  82.615
 1378	  8.0800	  2.2258	   4.905	  82.675
 1379	  8.0800	  2.2308	   4.910	  82.735
 1380	  8.0800	  2.2358	   4.915	  82.795
 1381	  8.1000	  2.2408	   4.920	  82.855
 1382	  8.1000	  2.2458	   4.925	  82.915
 1383	  8.1000	  2.2508	   4.930	  82.975
 1384	  8.1000	  2.2558	   4.935	  83.035
 1385	  8.1000	  2.2608	   4.940	  83.095
 1386	  8.1000	  2.2658	   4.945	  83.155
 1387	  8.1000	  2.2721	   4.951	  83.215
 1388	  8.1000	  2.2758	   4.955	  83.275
 1389	  8.1000	  2.2821	   4.961	  83.335
 1390	  8.1000	  2.2858	   4.965	  83.395
 1391	  8.1000	  2.2921	   4.971	  83.455
 1392	  8.1200	  2.2958	   4.975	  83.515
 1393	  8.1000	  2.3021	   4.981	  83.575
 1394	  8.1200	  2.3058	   4.985	  83.635
 1395	  8.1000	  2.3121	   4.991	  83.695
 1396	  8.1000	  2.3171	   4.996	  83.755
 1397	  8.1000	  2.3221	   5.001	  83.815
 1398	  8.1000	  2.3271	   5.006	  83.875
 1399	  8.1000	  2.3321	   5.011	  83.935
 1400	  8.1000	  2.3358	   5.015	  83.995
 1401	  8.1000	  2.3421	   5.021	  84.055
 1402	  8.1000	  2.3458	   5.025	  84.115
 1403	  8.1000	  2.3521	   5.031	  84.175
 1404	  8.1000	  2.3571	   5.036	  84.235
 1405	  8.1200	  2.3621	   5.041	  84.295
 1406	  8.1200	  2.3671	   5.046	  84.355
 1407	  8.1200	  2.3721	   5.051	  84.415
 1408	  8.1200	  2.3771	   5.056	  84.475
 1409	  8.1200	  2.3821	   5.061	  84.535
 1410	  8.1200	  2.3871	   5.066	  84.595
 1411	  8.1400	  2.3921	   5.071	  84.655
 1412	  8.1400	  2.3971	   5.076	  84.715
 1413	  8.1400	  2.4021	   5.081	  84.775
 1414	  8.1400	  2.4071	   5.086	  84.835
 1415	  8.1400	  2.4121	   5.091	  84.895
 1416	  8.1400	  2.4171	   5.096	  84.955
 1417	  8.1400	  2.4221	   5.101	  85.015
 1418	  8.1200	  2.4271	   5.106	  85.075
 1419	  8.1200	  2.4321	   5.111	  85.135
 1420	  8.1400	  2.4371	   5.116	  85.195
 1421	  8.1600	  2.4421	   5.121	  85.255
 1422	  8.1800	  2.4471	   5.126	  85.315
 1423	  8.1800	  2.4521	   5.131	  85.375
 1424	  8.2000	  2.4571	   5.136	  85.435
 1425	  8.2200	  2.4621	   5.141	  85.495
 1426	  8.2400	  2.4671	   5.146	  85.555
 1427	  8.2600	  2.4721	   5.151	  85.615
 1428	  8.2600	  2.4771	   5.156	  85.675
 1429	  8.2800	  2.4821	   5.161	  85.735
 1430	  8.2800	  2.4871	   5.166	  85.795
 1431	  8.3000	  2.4921	   5.171	  85.855
 1432	  8.3000	  2.4971	   5.176	  85.915
 1433	  8.3200	  2.5021	   5.181	  85.975
 1434	  8.3200	  2.5071	   5.186	  86.035
 1435	  8.3400	  2.5121	   5.191	  86.095
 1436	  8.3400	  2.5171	   5.196	  86.155
 1437	  8.3400	  2.5221	   5.201	  86.215
 1438	  8.3600	  2.5271	   5.206	  86.275
 1439	  8.3600	  2.5321	   5.211	  86.335
 1440	  8.3600	  2.5371	   5.216	  86.395
 1441	  8.3600	  2.5421	   5.221	  86.455
 1442	  8.3600	  2.5471	   5.226	  86.515
 1443	  8.3800	  2.5521	   5.231	  86.575
 1444	  8.3800	  2.5571	   5.236	  86.635
 1445	  8.3800	  2.5621	   5.241	  86.695
 1446	  8.3800	  2.5671	   5.246	  86.755
 1447	  8.4000	  2.5721	   5.251	  86.815
 1448	  8.4000	  2.5771	   5.256	  86.875
 1449	  8.4000	  2.5821	   5.261	  86.935
 1450	  8.4000	  2.5871	   5.266	  86.995
 1451	  8.4000	  2.5921	   5.271	  87.055
 1452	  8.4000	  2.5971	   5.276	  87.115
 1453	  8.3600	  2.6021	   5.281	  87.175
 1454	  8.3200	  2.6071	   5.286	  87.235
 1455	  8.2800	  2.6121	   5.291	  87.295
 1456	  8.2800	  2.6171	   5.296	  87.355
 1457	  8.3000	  2.6221	   5.301	  87.415
 1458	  8.3000	  2.6271	   5.306	  87.475
 1459	  8.3200	  2.6321	   5.311	  87.535
 1460	  8.3400	  2.6371	   5.316	  87.595
 1461	  8.3400	  2.6421	   5.321	  87.655
 1462	  8.3600	  2.6471	   5.326	  87.715
 1463	  8.3600	  2.6521	   5.331	  87.775
 1464	  8.3600	  2.6571	   5.336	  87.835
 1465	  8.3800	  2.6621	   5.341	  87.895
 1466	  8.3800	  2.6671	   5.346	  87.955
 1467	  8.3800	  2.6721	   5.351	  88.015
 1468	  8.3800	  2.6771	   5.356	  88.075
 1469	  8.4000	  2.6821	   5.361	  88.135
 1470	  8.4000	  2.6871	   5.366	  88.195
 1471	  8.4000	  2.6921	   5.371	  88.255
 1472	  8.4000	  2.6971	   5.376	  88.315
 1473	  8.4200	  2.7021	   5.381	  88.375
 1474	  8.4200	  2.7071	   5.386	  88.435
 1475	  8.4200	  2.7121	   5.391	  88.495
 1476	  8.4200	  2.7171	   5.396	  88.555
 1477	  8.4200	  2.7221	   5.401	  88.615
 1478	  8.4200	  2.7271	   5.406	  88.675
 1479	  8.4400	  2.7321	   5.411	  88.735
 1480	  8.4400	  2.7371	   5.416	  88.795
 1481	  8.4400	  2.7421	   5.421	  88.855
 1482	  8.4400	  2.7471	   5.426	  88.915
 1483	  8.4400	  2.7521	   5.431	  88.975
 1484	  8.4400	  2.7571	   5.436	  89.035
 1485	  8.4400	  2.7633	   5.443	  89.095
 1486	  8.4400	  2.7683	   5.447	  89.155
 1487	  8.4400	  2.7733	   5.452	  89.215
 1488	  8.4400	  2.7783	   5.457	  89.275
 1489	  8.4400	  2.7833	   5.463	  89.335
 1490	  8.4400	  2.7883	   5.467	  89.395
 1491	  8.4600	  2.7933	   5.472	  89.455
 1492	  8.4600	  2.7983	   5.477	  89.515
 1493	  8.4800	  2.8033	   5.483	  89.575
 1494	  8.4800	  2.8083	   5.487	  89.635
 1495	  8.5000	  2.8133	   5.492	  89.695
 1496	  8.5200	  2.8183	   5.497	  89.755
 1497	  8.5200	  2.8233	   5.503	  89.815
 1498	  8.5400	  2.8283	   5.507	  89.875
 1499	  8.5400	  2.8333	   5.512	  89.935
 1500	  8.5600	  2.8383	   5.517	  89.995
 1501	  8.5600	  2.8433	   5.523	  90.055
 1502	  8.5800	  2.8483	   5.527	  90.115
 1503	  8.5800	  2.8533	   5.532	  90.175
 1504	  8.5800	  2.8583	   5.537	  90.235
 1505	  8.6000	  2.8633	   5.543	  90.295
 1506	  8.6000	  2.8683	   5.547	  90.355
 1507	  8.6200	  2.8733	   5.552	  90.415
 1508	  8.6200	  2.8783	   5.557	  90.475
 1509	  8.6200	  2.8833	   5.562	  90.535
 1510	  8.6200	  2.8883	   5.567	  90.595
 1511	  8.6200	  2.8933	   5.572	  90.655
 1512	  8.6200	  2.8983	   5.577	  90.715
 1513	  8.6200	  2.9033	   5.582	  90.775
 1514	  8.6200	  2.9083	   5.588	  90.835
 1515	  8.5800	  2.9133	   5.592	  90.895
 1516	  8.5600	  2.9183	   5.597	  90.955
 1517	  8.5400	  2.9233	   5.602	  91.015
 1518	  8.5400	  2.9283	   5.608	  91.075
 1519	  8.5600	  2.9333	   5.612	  91.135
 1520	  8.5800	  2.9383	   5.617	  91.195
 1521	  8.5800	  2.9433	   5.622	  91.255
 1522	  8.6000	  2.9483	   5.628	  91.315
 1523	  8.6000	  2.9533	   5.632	  91.375
 1524	  8.6000	  2.9583	   5.637	  91.435
 1525	  8.6200	  2.9633	   5.642	  91.495
 1526	  8.6200	  2.9683	   5.648	  91.555
 1527	  8.6200	  2.9733	   5.652	  91.615
 1528	  8.6400	  2.9783	   5.657	  91.675
 1529	  8.6400	  2.9833	   5.662	  91.735
 1530	  8.6400	  2.9883	   5.668	  91.795
 1531	  8.6400	  2.9933	   5.672	  91.855
 1532	  8.6600	  2.9983	   5.677	  91.915
 1533	  8.6600	  3.0033	   5.682	  91.975
 1534	  8.6600	  3.0083	   5.688	  92.035
 1535	  8.6600	  3.0133	   5.692	  92.095
 1536	  8.6600	  3.0183	   5.697	  92.155
 1537	  8.6800	  3.0233	   5.702	  92.215
 1538	  8.6800	  3.0283	   5.707	  92.275
 1539	  8.6800	  3.0333	   5.713	  92.335
 1540	  8.6800	  3.0383	   5.717	  92.395
 1541	  8.6800	  3.0433	   5.722	  92.455
 1542	  8.7000	  3.0483	   5.727	  92.515
 1543	  8.7000	  3.0533	   5.733	  92.575
 1544	  8.7000	  3.0583	   5.737	  92.635
 1545	  8.7000	  3.0633	   5.742	  92.695
 1546	  8.7000	  3.0683	   5.747	  92.755
 1547	  8.7000	  3.0733	   5.753	  92.815
 1548	  8.6800	  3.0783	   5.757	  92.875
 1549	  8.6800	  3.0833	   5.762	  92.935
 1550	  8.6800	  3.0883	   5.767	  92.995
 1551	  8.6800	  3.0933	   5.773	  93.055
 1552	  8.7000	  3.0983	   5.777	  93.115
 1553	  8.7000	  3.1033	   5.782	  93.175
 1554	  8.7200	  3.1083	   5.787	  93.235
 1555	  8.7200	  3.1146	   5.794	  93.295
 1556	  8.7400	  3.1183	   5.797	  93.355
 1557	  8.7600	  3.1246	   5.804	  93.415
 1558	  8.7600	  3.1296	   5.809	  93.475
 1559	  8.7800	  3.1346	   5.814	  93.535
 1560	  8.7800	  3.1396	   5.819	  93.595
 1561	  8.8000	  3.1446	   5.824	  93.655
 1562	  8.8000	  3.1496	   5.829	  93.715
 1563	  8.8200	  3.1546	   5.834	  93.775
 1564	  8.8200	  3.1596	   5.839	  93.835
 1565	  8.8200	  3.1646	   5.844	  93.895
 1566	  8.8200	  3.1696	   5.849	  93.955
 1567	  8.8200	  3.1746	   5.854	  94.015
 1568	  8.8200	  3.1796	   5.859	  94.075
 1569	  8.7800	  3.1846	   5.864	  94.135
 1570	  8.7200	  3.1896	   5.869	  94.195
 1571	  8.7000	  3.1946	   5.874	  94.255
 1572	  8.7000	  3.1996	   5.879	  94.315
 1573	  8.7000	  3.2046	   5.884	  94.375
 1574	  8.7200	  3.2096	   5.889	  94.435
 1575	  8.7200	  3.2146	   5.894	  94.495
 1576	  8.7400	  3.2196	   5.899	  94.555
 1577	  8.7400	  3.2246	   5.904	  94.615
 1578	  8.7400	  3.2296	   5.909	  94.675
 1579	  8.7400	  3.2346	   5.914	  94.735
 1580	  8.7600	  3.2396	   5.919	  94.795
 1581	  8.7600	  3.2446	   5.924	  94.855
 1582	  8.7600	  3.2496	   5.929	  94.915
 1583	  8.7600	  3.2546	   5.934	  94.975
 1584	  8.7800	  3.2596	   5.939	  95.035
 1585	  8.7800	  3.2646	   5.944	  95.095
 1586	  8.7800	  3.2696	   5.949	  95.155
 1587	  8.7800	  3.2746	   5.954	  95.215
 1588	  8.7800	  3.2796	   5.959	  95.275
 1589	  8.8000	  3.2846	   5.964	  95.335
 1590	  8.8000	  3.2896	   5.969	  95.395
 1591	  8.8000	  3.2946	   5.974	  95.455
 1592	  8.8200	  3.2996	   5.979	  95.515
 1593	  8.8200	  3.3046	   5.984	  95.575
 1594	  8.8200	  3.3096	   5.989	  95.635
 1595	  8.8200	  3.3146	   5.994	  95.695
 1596	  8.8400	  3.3196	   5.999	  95.755
 1597	  8.8400	  3.3246	   6.004	  95.815
 1598	  8.8400	  3.3296	   6.009	  95.875
 1599	  8.8400	  3.3346	   6.014	  95.935
 1600	  8.8600	  3.3396	   6.019	  95.995
 1601	  8.8600	  3.3446	   6.024	  96.055
 1602	  8.8800	  3.3496	   6.029	  96.115
 1603	  8.8600	  3.3546	   6.034	  96.175
 1604	  8.8800	  3.3596	   6.039	  96.235
 1605	  8.8800	  3.3646	   6.044	  96.295
 1606	  8.8800	  3.3696	   6.049	  96.355
 1607	  8.9000	  3.3746	   6.054	  96.415
 1608	  8.9000	  3.3796	   6.059	  96.475
 1609	  8.9000	  3.3846	   6.064	  96.535
 1610	  8.9000	  3.3908	   6.070	  96.595
 1611	  8.9200	  3.3946	   6.074	  96.655
 1612	  8.9200	  3.4008	   6.080	  96.715
 1613	  8.9200	  3.4046	   6.084	  96.775
 1614	  8.9200	  3.4108	   6.090	  96.835
 1615	  8.9200	  3.4158	   6.095	  96.895
 1616	  8.9200	  3.4208	   6.100	  96.955
 1617	  8.9200	  3.4258	   6.105	  97.015
 1618	  8.9200	  3.4308	   6.110	  97.075
 1619	  8.9200	  3.4358	   6.115	  97.135
 1620	  8.9200	  3.4408	   6.120	  97.195
 1621	  8.9200	  3.4458	   6.125	  97.255
 1622	  8.9200	  3.4508	   6.130	  97.315
 1623	  8.9200	  3.4558	   6.135	  97.375
 1624	  8.9400	  3.4608	   6.140	  97.435
 1625	  8.9400	  3.4658	   6.145	  97.495
 1626	  8.9600	  3.4708	   6.150	  97.555
 1627	  8.9600	  3.4758	   6.155	  97.615
 1628	  8.9800	  3.4808	   6.160	  97.675
 1629	  8.9800	  3.4858	   6.165	  97.735
 1630	  9.0000	  3.4908	   6.170	  97.795
 1631	  9.0000	  3.4958	   6.175	  97.855
 1632	  9.0200	  3.5008	   6.180	  97.915
 1633	  9.0200	  3.5058	   6.185	  97.975
 1634	  9.0200	  3.5108	   6.190	  98.035
 1635	  9.0400	  3.5158	   6.195	  98.095
 1636	  9.0400	  3.5208	   6.200	  98.155
 1637	  9.0600	  3.5258	   6.205	  98.215
 1638	  9.0600	  3.5308	   6.210	  98.275
 1639	  9.0600	  3.5358	   6.215	  98.335
 1640	  9.0600	  3.5408	   6.220	  98.395
 1641	  9.0600	  3.5458	   6.225	  98.455
 1642	  9.0800	  3.5508	   6.230	  98.515
 1643	  9.0800	  3.5558	   6.235	  98.575
 1644	  9.0800	  3.5608	   6.240	  98.635
 1645	  9.1000	  3.5658	   6.245	  98.695
 1646	  9.1000	  3.5708	   6.250	  98.755
 1647	  9.1000	  3.5758	   6.255	  98.815
 1648	  9.1200	  3.5808	   6.260	  98.875
 1649	  9.1200	  3.5858	   6.265	  98.935
 1650	  9.1200	  3.5908	   6.270	  98.995
 1651	  9.1200	  3.5958	   6.275	  99.055
 1652	  9.1200	  3.6008	   6.280	  99.115
 1653	  9.1400	  3.6058	   6.285	  99.175
 1654	  9.1400	  3.6108	   6.290	  99.235
 1655	  9.1400	  3.6158	   6.295	  99.295
 1656	  9.1400	  3.6196	   6.299	  99.355
 1657	  9.1200	  3.6246	   6.304	  99.415
 1658	  9.1200	  3.6296	   6.309	  99.475
 1659	  9.1200	  3.6346	   6.314	  99.535
 1660	  9.1200	  3.6396	   6.319	  99.595
 1661	  9.1000	  3.6446	   6.324	  99.655
 1662	  9.0800	  3.6496	   6.329	  99.715
 1663	  9.0600	  3.6546	   6.334	  99.775
 1664	  9.0600	  3.6596	   6.339	  99.835
 1665	  9.0600	  3.6646	   6.344	  99.895
 1666	  9.0600	  3.6696	   6.349	  99.955
 1667	  9.0600	  3.6746	   6.354	 100.015
 1668	  9.0800	  3.6796	   6.359	 100.075
 1669	  9.0800	  3.6846	   6.364	 100.135
 1670	  9.0800	  3.6896	   6.369	 100.195
 1671	  9.1000	  3.6946	   6.374	 100.255
 1672	  9.1000	  3.6996	   6.379	 100.315
 1673	  9.1000	  3.7046	   6.384	 100.375
 1674	  9.1000	  3.7096	   6.389	 100.435
 1675	  9.1200	  3.7146	   6.394	 100.495
 1676	  9.1200	  3.7196	   6.399	 100.555
 1677	  9.1200	  3.7246	   6.404	 100.615
 1678	  9.1000	  3.7296	   6.409	 100.675
 1679	  9.1000	  3.7346	   6.414	 100.735
 1680	  9.0800	  3.7396	   6.419	 100.795
 1681	  9.0600	  3.7446	   6.424	 100.855
 1682	  9.0600	  3.7496	   6.429	 100.915
 1683	  9.0600	  3.7546	   6.434	 100.975
 1684	  9.0800	  3.7596	   6.439	 101.035
 1685	  9.0800	  3.7646	   6.444	 101.095
 1686	  9.0800	  3.7696	   6.449	 101.155
 1687	  9.0800	  3.7746	   6.454	 101.215
 1688	  9.0800	  3.7796	   6.459	 101.275
 1689	  9.1000	  3.7846	   6.464	 101.335
 1690	  9.0800	  3.7896	   6.469	 101.395
 1691	  9.1000	  3.7946	   6.474	 101.455
 1692	  9.1000	  3.7996	   6.479	 101.515
 1693	  9.1000	  3.8046	   6.484	 101.575
 1694	  9.1000	  3.8096	   6.489	 101.635
 1695	  9.1000	  3.8146	   6.494	 101.695
 1696	  9.1000	  3.8196	   6.499	 101.755
 1697	  9.1000	  3.8246	   6.504	 101.815
 1698	  9.1200	  3.8296	   6.509	 101.875
 1699	  9.1200	  3.8346	   6.514	 101.935
 1700	  9.1200	  3.8396	   6.519	 101.995
 1701	  9.1200	  3.8446	   6.524	 102.055
 1702	  9.1200	  3.8508	   6.530	 102.115
 1703	  9.1200	  3.8558	   6.535	 102.175
 1704	  9.1200	  3.8608	   6.540	 102.235
 1705	  9.1200	  3.8658	   6.545	 102.295
 1706	  9.1200	  3.8708	   6.550	 102.355
 1707	  9.1200	  3.8758	   6.555	 102.415
 1708	  9.1200	  3.8808	   6.560	 102.475
 1709	  9.1200	  3.8858	   6.565	 102.535
 1710	  9.1200	  3.8908	   6.570	 102.595
 1711	  9.1400	  3.8958	   6.575	 102.655
 1712	  9.1400	  3.9008	   6.580	 102.715
 1713	  9.1600	  3.9058	   6.585	 102.775
 1714	  9.1800	  3.9108	   6.590	 102.835
 1715	  9.1800	  3.9158	   6.595	 102.895
 1716	  9.2000	  3.9208	   6.600	 102.955
 1717	  9.2200	  3.9258	   6.605	 103.015
 1718	  9.2200	  3.9308	   6.610	 103.075
 1719	  9.2400	  3.9358	   6.615	 103.135
 1720	  9.2400	  3.9408	   6.620	 103.195
 1721	  9.2600	  3.9458	   6.625	 103.255
 1722	  9.2800	  3.9508	   6.630	 103.315
 1723	  9.2800	  3.9558	   6.635	 103.375
 1724	  9.3000	  3.9608	   6.640	 103.435
 1725	  9.3000	  3.9658	   6.645	 103.495
 1726	  9.3000	  3.9708	   6.650	 103.555
 1727	  9.3200	  3.9758	   6.655	 103.615
 1728	  9.3200	  3.9808	   6.660	 103.675
 1729	  9.3200	  3.9858	   6.665	 103.735
 1730	  9.3200	  3.9908	   6.670	 103.795
 1731	  9.3200	  3.9958	   6.675	 103.855
 1732	  9.3200	  4.0008	   6.680	 103.915
 1733	  9.3000	  4.0058	   6.685	 103.975
 1734	  9.2600	  4.0108	   6.690	 104.035
 1735	  9.2400	  4.0158	   6.695	 104.095
 1736	  9.2200	  4.0208	   6.700	 104.155
 1737	  9.2200	  4.0258	   6.705	 104.215
 1738	  9.2200	  4.0308	   6.710	 104.275
 1739	  9.2400	  4.0358	   6.715	 104.335
 1740	  9.2400	  4.0408	   6.720	 104.395
 1741	  9.2400	  4.0458	   6.725	 104.455
 1742	  9.2600	  4.0508	   6.730	 104.515
 1743	  9.2600	  4.0558	   6.735	 104.575
 1744	  9.2600	  4.0608	   6.740	 104.635
 1745	  9.2600	  4.0658	   6.745	 104.695
 1746	  9.2800	  4.0708	   6.750	 104.755
 1747	  9.2800	  4.0758	   6.755	 104.815
 1748	  9.2800	  4.0808	   6.760	 104.875
 1749	  9.2800	  4.0858	   6.765	 104.935
 1750	  9.3000	  4.0908	   6.770	 104.995
 1751	  9.3000	  4.0958	   6.775	 105.055
 1752	  9.3000	  4.1021	   6.781	 105.115
 1753	  9.3000	  4.1058	   6.785	 105.175
 1754	  9.3000	  4.1121	   6.791	 105.235
 1755	  9.3200	  4.1158	   6.795	 105.295
 1756	  9.3200	  4.1221	   6.801	 105.355
 1757	  9.3200	  4.1271	   6.806	 105.415
 1758	  9.3200	  4.1321	   6.811	 105.475
 1759	  9.3400	  4.1371	   6.816	 105.535
 1760	  9.3400	  4.1421	   6.821	 105.595
 1761	  9.3400	  4.1471	   6.826	 105.655
 1762	  9.3400	  4.1521	   6.831	 105.715
 1763	  9.3400	  4.1571	   6.836	 105.775
 1764	  9.3400	  4.1621	   6.841	 105.835
 1765	  9.3600	  4.1671	   6.846	 105.895
 1766	  9.3600	  4.1721	   6.851	 105.955
 1767	  9.3600	  4.1758	   6.855	 106.015
 1768	  9.3600	  4.1821	   6.861	 106.075
 1769	  9.3600	  4.1858	   6.865	 106.135
 1770	  9.3600	  4.1921	   6.871	 106.195
 1771	  9.3800	  4.1958	   6.875	 106.255
 1772	  9.3800	  4.2021	   6.881	 106.315
 1773	  9.3800	  4.2058	   6.885	 106.375
 1774	  9.3800	  4.2121	   6.891	 106.435
 1775	  9.3800	  4.2158	   6.895	 106.495
 1776	  9.3800	  4.2221	   6.901	 106.555
 1777	  9.3800	  4.2271	   6.906	 106.615
 1778	  9.3800	  4.2321	   6.911	 106.675
 1779	  9.3800	  4.2371	   6.916	 106.735
 1780	  9.3800	  4.2421	   6.921	 106.795
 1781	  9.3800	  4.2471	   6.926	 106.855
 1782	  9.3600	  4.2521	   6.931	 106.915
 1783	  9.3600	  4.2571	   6.936	 106.975
 1784	  9.3600	  4.2621	   6.941	 107.035
 1785	  9.3800	  4.2671	   6.946	 107.095
 1786	  9.3800	  4.2721	   6.951	 107.155
 1787	  9.3800	  4.2771	   6.956	 107.215
 1788	  9.4000	  4.2821	   6.961	 107.275
 1789	  9.4000	  4.2871	   6.966	 107.335
 1790	  9.4200	  4.2921	   6.971	 107.395
 1791	  9.4200	  4.2971	   6.976	 107.455
 1792	  9.4200	  4.3021	   6.981	 107.515
 1793	  9.4200	  4.3071	   6.986	 107.575
 1794	  9.4200	  4.3121	   6.991	 107.635
 1795	  9.4200	  4.3171	   6.996	 107.695
 1796	  9.4200	  4.3221	   7.001	 107.755
 1797	  9.4200	  4.3271	   7.006	 107.815
 1798	  9.4000	  4.3321	   7.011	 107.875
 1799	  9.4000	  4.3371	   7.016	 107.935
 1800	  9.4000	  4.3421	   7.021	 107.995
 1801	  9.3800	  4.3471	   7.026	 108.055
 1802	  9.3800	  4.3521	   7.031	 108.115
 1803	  9.4000	  4.3571	   7.036	 108.175
 1804	  9.4000	  4.3621	   7.041	 108.235
 1805	  9.4000	  4.3671	   7.046	 108.295
 1806	  9.4000	  4.3721	   7.051	 108.355
 1807	  9.4200	  4.3771	   7.056	 108.415
 1808	  9.4200	  4.3821	   7.061	 108.475
 1809	  9.4400	  4.3871	   7.066	 108.535
 1810	  9.4400	  4.3921	   7.071	 108.595
 1811	  9.4600	  4.3971	   7.076	 108.655
 1812	  9.4600	  4.4021	   7.081	 108.715
 1813	  9.4800	  4.4071	   7.086	 108.775
 1814	  9.4800	  4.4121	   7.091	 108.835
 1815	  9.4800	  4.4171	   7.096	 108.895
 1816	  9.4800	  4.4221	   7.101	 108.955
 1817	  9.5000	  4.4271	   7.106	 109.015
 1818	  9.5000	  4.4321	   7.111	 109.075
 1819	  9.5000	  4.4371	   7.116	 109.135
 1820	  9.5000	  4.4433	   7.122	 109.195
 1821	  9.5000	  4.4471	   7.126	 109.255
 1822	  9.5200	  4.4533	   7.132	 109.315
 1823	  9.5200	  4.4583	   7.137	 109.375
 1824	  9.5200	  4.4633	   7.142	 109.435
 1825	  9.5200	  4.4683	   7.148	 109.495
 1826	  9.5200	  4.4733	   7.152	 109.555
 1827	  9.5200	  4.4783	   7.157	 109.615
 1828	  9.5200	  4.4833	   7.162	 109.675
 1829	  9.5400	  4.4883	   7.168	 109.735
 1830	  9.5400	  4.4933	   7.172	 109.795
 1831	  9.5400	  4.4983	   7.177	 109.855
 1832	  9.5400	  4.5033	   7.182	 109.915
 1833	  9.5400	  4.5083	   7.188	 109.975
 1834	  9.5400	  4.5133	   7.192	 110.035
 1835	  9.5600	  4.5183	   7.197	 110.095
 1836	  9.5600	  4.5233	   7.202	 110.155
 1837	  9.5600	  4.5283	   7.207	 110.215
 1838	  9.5600	  4.5321	   7.211	 110.275
 1839	  9.5600	  4.5383	   7.217	 110.335
 1840	  9.5600	  4.5421	   7.221	 110.395
 1841	  9.5600	  4.5483	   7.227	 110.455
 1842	  9.5800	  4.5533	   7.233	 110.515
 1843	  9.5800	  4.5571	   7.236	 110.575
 1844	  9.5800	  4.5633	   7.242	 110.635
 1845	  9.5800	  4.5683	   7.247	 110.695
 1846	  9.5800	  4.5733	   7.253	 110.755
 1847	  9.5800	  4.5783	   7.257	 110.815
 1848	  9.5800	  4.5833	   7.262	 110.875
 1849	  9.5800	  4.5883	   7.267	 110.935
 1850	  9.5800	  4.5933	   7.273	 110.995
 1851	  9.6000	  4.5983	   7.277	 111.055
 1852	  9.6000	  4.6033	   7.282	 111.115
 1853	  9.6000	  4.6083	   7.287	 111.175
 1854	  9.6000	  4.6133	   7.293	 111.235
 1855	  9.6000	  4.6183	   7.297	 111.295
 1856	  9.6000	  4.6233	   7.302	 111.355
 1857	  9.6000	  4.6283	   7.307	 111.415
 1858	  9.6000	  4.6333	   7.312	 111.475
 1859	  9.6000	  4.6383	   7.317	 111.535
 1860	  9.6200	  4.6433	   7.322	 111.595
 1861	  9.6000	  4.6483	   7.327	 111.655
 1862	  9.6200	  4.6533	   7.332	 111.715
 1863	  9.6200	  4.6583	   7.337	 111.775
 1864	  9.6200	  4.6633	   7.342	 111.835
 1865	  9.6200	  4.6683	   7.347	 111.895
 1866	  9.6200	  4.6733	   7.352	 111.955
 1867	  9.6200	  4.6783	   7.357	 112.015
 1868	  9.6200	  4.6833	   7.362	 112.075
 1869	  9.6400	  4.6883	   7.367	 112.135
 1870	  9.6400	  4.6933	   7.372	 112.195
 1871	  9.6400	  4.6983	   7.378	 112.255
 1872	  9.6400	  4.7033	   7.382	 112.315
 1873	  9.6400	  4.7083	   7.387	 112.375
 1874	  9.6400	  4.7133	   7.392	 112.435
 1875	  9.6400	  4.7183	   7.398	 112.495
 1876	  9.6400	  4.7233	   7.402	 112.555
 1877	  9.6400	  4.7283	   7.407	 112.615
 1878	  9.6600	  4.7333	   7.412	 112.675
 1879	  9.6600	  4.7383	   7.418	 112.735
 1880	  9.6600	  4.7433	   7.422	 112.795
 1881	  9.6600	  4.7483	   7.427	 112.855
 1882	  9.6600	  4.7546	   7.434	 112.915
 1883	  9.6600	  4.7583	   7.438	 112.975
 1884	  9.6600	  4.7646	   7.444	 113.035
 1885	  9.6400	  4.7696	   7.449	 113.095
 1886	  9.6000	  4.7746	   7.454	 113.155
 1887	  9.5200	  4.7796	   7.459	 113.215
 1888	  9.4800	  4.7846	   7.464	 113.275
 1889	  9.4800	  4.7896	   7.469	 113.335
 1890	  9.5000	  4.7946	   7.474	 113.395
 1891	  9.5000	  4.7996	   7.479	 113.455
 1892	  9.5200	  4.8046	   7.484	 113.515
 1893	  9.5400	  4.8096	   7.489	 113.575
 1894	  9.5400	  4.8146	   7.494	 113.635
 1895	  9.5600	  4.8196	   7.499	 113.695
 1896	  9.5600	  4.8246	   7.504	 113.755
 1897	  9.5600	  4.8296	   7.509	 113.815
 1898	  9.5600	  4.8346	   7.514	 113.875
 1899	  9.5600	  4.8396	   7.519	 113.935
 1900	  9.5800	  4.8446	   7.524	 113.995
 1901	  9.5800	  4.8496	   7.529	 114.055
 1902	  9.5800	  4.8546	   7.534	 114.115
 1903	  9.5800	  4.8596	   7.539	 114.175
 1904	  9.5800	  4.8646	   7.544	 114.235
 1905	  9.6000	  4.8696	   7.549	 114.295
 1906	  9.6000	  4.8746	   7.554	 114.355
 1907	  9.6000	  4.8796	   7.559	 114.415
 1908	  9.6000	  4.8846	   7.564	 114.475
 1909	  9.6200	  4.8896	   7.569	 114.535
 1910	  9.6200	  4.8946	   7.574	 114.595
 1911	  9.6200	  4.8996	   7.579	 114.655
 1912	  9.6200	  4.9046	   7.584	 114.715
 1913	  9.6400	  4.9096	   7.589	 114.775
 1914	  9.6400	  4.9146	   7.594	 114.835
 1915	  9.6400	  4.9196	   7.599	 114.895
 1916	  9.6400	  4.9246	   7.604	 114.955
 1917	  9.6400	  4.9296	   7.609	 115.015
 1918	  9.6600	  4.9346	   7.614	 115.075
 1919	  9.6600	  4.9396	   7.619	 115.135
 1920	  9.6600	  4.9446	   7.624	 115.195
 1921	  9.6600	  4.9496	   7.629	 115.255
 1922	  9.6600	  4.9546	   7.634	 115.315
 1923	  9.6600	  4.9596	   7.639	 115.375
 1924	  9.6600	  4.9646	   7.644	 115.435
 1925	  9.6400	  4.9696	   7.649	 115.495
 1926	  9.6400	  4.9746	   7.654	 115.555
 1927	  9.6400	  4.9796	   7.659	 115.615
 1928	  9.6400	  4.9846	   7.664	 115.675
 1929	  9.6400	  4.9896	   7.669	 115.735
 1930	  9.6400	  4.9946	   7.674	 115.795
 1931	  9.6600	  4.9996	   7.679	 115.855
 1932	  9.6600	  5.0046	   7.684	 115.915
 1933	  9.6600	  5.0096	   7.689	 115.975
 1934	  9.6800	  5.0146	   7.694	 116.035
 1935	  9.6800	  5.0196	   7.699	 116.095
 1936	  9.6800	  5.0246	   7.704	 116.155
 1937	  9.7000	  5.0308	   7.710	 116.215
 1938	  9.7000	  5.0346	   7.714	 116.275
 1939	  9.7000	  5.0408	   7.720	 116.335
 1940	  9.7200	  5.0458	   7.725	 116.395
 1941	  9.7200	  5.0508	   7.730	 116.455
 1942	  9.7200	  5.0558	   7.735	 116.515
 1943	  9.7200	  5.0608	   7.740	 116.575
 1944	  9.7200	  5.0658	   7.745	 116.635
 1945	  9.7200	  5.0708	   7.750	 116.695
 1946	  9.7200	  5.0758	   7.755	 116.755
 1947	  9.7200	  5.0808	   7.760	 116.815
 1948	  9.7200	  5.0858	   7.765	 116.875
 1949	  9.7200	  5.0908	   7.770	 116.935
 1950	  9.7200	  5.0958	   7.775	 116.995
 1951	  9.7200	  5.1008	   7.780	 117.055
 1952	  9.7400	  5.1058	   7.785	 117.115
 1953	  9.7400	  5.1108	   7.790	 117.175
 1954	  9.7600	  5.1158	   7.795	 117.235
 1955	  9.7600	  5.1208	   7.800	 117.295
 1956	  9.7600	  5.1258	   7.805	 117.355
 1957	  9.7800	  5.1308	   7.810	 117.415
 1958	  9.7800	  5.1358	   7.815	 117.475
 1959	  9.8000	  5.1408	   7.820	 117.535
 1960	  9.8000	  5.1458	   7.825	 117.595
 1961	  9.8000	  5.1508	   7.830	 117.655
 1962	  9.8200	  5.1558	   7.835	 117.715
 1963	  9.8200	  5.1608	   7.840	 117.775
 1964	  9.8200	  5.1658	   7.845	 117.835
 1965	  9.8400	  5.1708	   7.850	 117.895
 1966	  9.8400	  5.1758	   7.855	 117.955
 1967	  9.8400	  5.1808	   7.860	 118.015
 1968	  9.8400	  5.1858	   7.865	 118.075
 1969	  9.8600	  5.1908	   7.870	 118.135
 1970	  9.8600	  5.1958	   7.875	 118.195
 1971	  9.8600	  5.2008	   7.880	 118.255
 1972	  9.8600	  5.2058	   7.885	 118.315
 1973	  9.8800	  5.2108	   7.890	 118.375
 1974	  9.8800	  5.2158	   7.895	 118.435
 1975	  9.8800	  5.2208	   7.900	 118.495
 1976	  9.8800	  5.2258	   7.905	 118.555
 1977	  9.8800	  5.2308	   7.910	 118.615
 1978	  9.8800	  5.2358	   7.915	 118.675
 1979	  9.8800	  5.2408	   7.920	 118.735
 1980	  9.8800	  5.2458	   7.925	 118.795
 1981	  9.8800	  5.2508	   7.930	 118.855
 1982	  9.9000	  5.2558	   7.935	 118.915
 1983	  9.9000	  5.2608	   7.940	 118.975
 1984	  9.9000	  5.2658	   7.945	 119.035
 1985	  9.9000	  5.2708	   7.950	 119.095
 1986	  9.9000	  5.2758	   7.955	 119.155
 1987	  9.9000	  5.2821	   7.961	 119.215
 1988	  9.9000	  5.2858	   7.965	 119.275
 1989	  9.9000	  5.2908	   7.970	 119.335
 1990	  9.9000	  5.2958	   7.975	 119.395
 1991	  9.9000	  5.3021	   7.981	 119.455
 1992	  9.9000	  5.3058	   7.985	 119.515
 1993	  9.9000	  5.3108	   7.990	 119.575
 1994	  9.9000	  5.3158	   7.995	 119.635
 1995	  9.9000	  5.3208	   8.000	 119.695
 1996	  9.9000	  5.3258	   8.005	 119.755
 1997	  9.9000	  5.3308	   8.010	 119.815
 1998	  9.9000	  5.3358	   8.015	 119.875
 1999	  9.9000	  5.3408	   8.020	 119.935
 2000	  9.9000	  5.3458	   8.025	 119.995
 2001	  9.8800	  5.3508	   8.030	 120.055
 2002	  9.8800	  5.3558	   8.035	 120.115
 2003	  9.8800	  5.3621	   8.041	 120.175
 2004	  9.8800	  5.3658	   8.045	 120.235
 2005	  9.8800	  5.3721	   8.051	 120.295
 2006	  9.8800	  5.3758	   8.055	 120.355
 2007	  9.8800	  5.3821	   8.061	 120.415
 2008	  9.8600	  5.3858	   8.065	 120.475
 2009	  9.8600	  5.3921	   8.071	 120.535
 2010	  9.8600	  5.3958	   8.075	 120.595
 2011	  9.8600	  5.4021	   8.081	 120.655
 2012	  9.8600	  5.4071	   8.086	 120.715
 2013	  9.8400	  5.4121	   8.091	 120.775
 2014	  9.8400	  5.4171	   8.096	 120.835
 2015	  9.8400	  5.4221	   8.101	 120.895
 2016	  9.8400	  5.4271	   8.106	 120.955
 2017	  9.8200	  5.4321	   8.111	 121.015
 2018	  9.8200	  5.4371	   8.116	 121.075
 2019	  9.8200	  5.4421	   8.121	 121.135
 2020	  9.8200	  5.4471	   8.126	 121.195
 2021	  9.8200	  5.4521	   8.131	 121.255
 2022	  9.8200	  5.4571	   8.136	 121.315
 2023	  9.8000	  5.4621	   8.141	 121.375
 2024	  9.8000	  5.4671	   8.146	 121.435
 2025	  9.8000	  5.4721	   8.151	 121.495
 2026	  9.8000	  5.4771	   8.156	 121.555
 2027	  9.8000	  5.4821	   8.161	 121.615
 2028	  9.8000	  5.4871	   8.166	 121.675
 2029	  9.8000	  5.4921	   8.171	 121.735
 2030	  9.8000	  5.4971	   8.176	 121.795
 2031	  9.7800	  5.5021	   8.181	 121.855
 2032	  9.7800	  5.5071	   8.186	 121.915
 2033	  9.7800	  5.5121	   8.191	 121.975
 2034	  9.7800	  5.5171	   8.196	 122.035
 2035	  9.7800	  5.5221	   8.201	 122.095
 2036	  9.7800	  5.5271	   8.206	 122.155
 2037	  9.7800	  5.5321	   8.211	 122.215
 2038	  9.7800	  5.5371	   8.216	 122.275
 2039	  9.7800	  5.5396	   8.219	 122.335
 2040	  9.7800	  5.5446	   8.224	 122.395
 2041	  9.8000	  5.5496	   8.229	 122.455
 2042	  9.8000	  5.5546	   8.234	 122.515
 2043	  9.8000	  5.5596	   8.239	 122.575
 2044	  9.8000	  5.5646	   8.244	 122.635
 2045	  9.8000	  5.5696	   8.249	 122.695
 2046	  9.8000	  5.5746	   8.254	 122.755
 2047	  9.8200	  5.5796	   8.259	 122.815
 2048	  9.8200	  5.5846	   8.264	 122.875
 2049	  9.8200	  5.5896	   8.269	 122.935
 2050	  9.8400	  5.5946	   8.274	 122.995
 2051	  9.8400	  5.5996	   8.279	 123.055
 2052	  9.8400	  5.6046	   8.284	 123.115
 2053	  9.8600	  5.6096	   8.289	 123.175
 2054	  9.8600	  5.6146	   8.294	 123.235
 2055	  9.8600	  5.6196	   8.299	 123.295
 2056	  9.8800	  5.6246	   8.304	 123.355
 2057	  9.8800	  5.6296	   8.309	 123.415
 2058	  9.8800	  5.6346	   8.314	 123.475
 2059	  9.9000	  5.6396	   8.319	 123.535
 2060	  9.9000	  5.6446	   8.324	 123.595
 2061	  9.9000	  5.6496	   8.329	 123.655
 2062	  9.9200	  5.6546	   8.334	 123.715
 2063	  9.9200	  5.6596	   8.339	 123.775
 2064	  9.9200	  5.6646	   8.344	 123.835
 2065	  9.9200	  5.6696	   8.349	 123.895
 2066	  9.9200	  5.6746	   8.354	 123.955
 2067	  9.9200	  5.6796	   8.359	 124.015
 2068	  9.9400	  5.6846	   8.364	 124.075
 2069	  9.9400	  5.6896	   8.369	 124.135
 2070	  9.9400	  5.6946	   8.374	 124.195
 2071	  9.9400	  5.6996	   8.379	 124.255
 2072	  9.9400	  5.7046	   8.384	 124.315
 2073	  9.9600	  5.7096	   8.389	 124.375
 2074	  9.9600	  5.7146	   8.394	 124.435
 2075	  9.9600	  5.7196	   8.399	 124.495
 2076	  9.9600	  5.7246	   8.404	 124.555
 2077	  9.9600	  5.7296	   8.409	 124.615
 2078	  9.9600	  5.7346	   8.414	 124.675
 2079	  9.9600	  5.7396	   8.419	 124.735
 2080	  9.9800	  5.7446	   8.424	 124.795
 2081	  9.9800	  5.7508	   8.430	 124.855
 2082	  9.9800	  5.7558	   8.435	 124.915
 2083	  9.9800	  5.7608	   8.440	 124.975
 2084	  9.9800	  5.7658	   8.445	 125.035
 2085	  9.9800	  5.7708	   8.450	 125.095
 2086	  9.9800	  5.7758	   8.455	 125.155
 2087	  9.9800	  5.7808	   8.460	 125.215
 2088	 10.0000	  5.7858	   8.465	 125.275
 2089	 10.0000	  5.7908	   8.470	 125.335
 2090	 10.0000	  5.7958	   8.475	 125.395
 2091	 10.0000	  5.8008	   8.480	 125.455
 2092	 10.0000	  5.8058	   8.485	 125.515
 2093	 10.0000	  5.8108	   8.490	 125.575
 2094	 10.0200	  5.8158	   8.495	 125.635
 2095	 10.0200	  5.8208	   8.500	 125.695
 2096	 10.0200	  5.8258	   8.505	 125.755
 2097	 10.0200	  5.8308	   8.510	 125.815
 2098	 10.0200	  5.8358	   8.515	 125.875
 2099	 10.0200	  5.8408	   8.520	 125.935
 2100	 10.0200	  5.8458	   8.525	 125.995
 2101	 10.0200	  5.8508	   8.530	 126.055
 2102	 10.0400	  5.8558	   8.535	 126.115
 2103	 10.0400	  5.8608	   8.540	 126.175
 2104	 10.0400	  5.8658	   8.545	 126.235
 2105	 10.0400	  5.8708	   8.550	 126.295
 2106	 10.0400	  5.8758	   8.555	 126.355
 2107	 10.0400	  5.8808	   8.560	 126.415
 2108	 10.0400	  5.8858	   8.565	 126.475
 2109	 10.0400	  5.8908	   8.570	 126.535
 2110	 10.0400	  5.8958	   8.575	 126.595
 2111	 10.0400	  5.9008	   8.580	 126.655
 2112	 10.0600	  5.9058	   8.585	 126.715
 2113	 10.0600	  5.9108	   8.590	 126.775
 2114	 10.0600	  5.9158	   8.595	 126.835
 2115	 10.0600	  5.9208	   8.600	 126.895
 2116	 10.0600	  5.9258	   8.605	 126.955
 2117	 10.0600	  5.9321	   8.611	 127.015
 2118	 10.0600	  5.9358	   8.615	 127.075
 2119	 10.0600	  5.9421	   8.621	 127.135
 2120	 10.0600	  5.9458	   8.625	 127.195
 2121	 10.0800	  5.9521	   8.631	 127.255
 2122	 10.0800	  5.9558	   8.635	 127.315
 2123	 10.0800	  5.9621	   8.641	 127.375
 2124	 10.0800	  5.9658	   8.645	 127.435
 2125	 10.0800	  5.9721	   8.651	 127.495
 2126	 10.0800	  5.9758	   8.655	 127.555
 2127	 10.0800	  5.9821	   8.661	 127.615
 2128	 10.0800	  5.9871	   8.666	 127.675
 2129	 10.0800	  5.9921	   8.671	 127.735
 2130	 10.0800	  5.9971	   8.676	 127.795
 2131	 10.1000	  6.0021	   8.681	 127.855
 2132	 10.1000	  6.0071	   8.686	 127.915
 2133	 10.1000	  6.0121	   8.691	 127.975
 2134	 10.1000	  6.0171	   8.696	 128.035
 2135	 10.1000	  6.0221	   8.701	 128.095
 2136	 10.1000	  6.0271	   8.706	 128.155
 2137	 10.1000	  6.0321	   8.711	 128.215
 2138	 10.1000	  6.0371	   8.716	 128.275
 2139	 10.1000	  6.0421	   8.721	 128.335
 2140	 10.1000	  6.0471	   8.726	 128.395
 2141	 10.1200	  6.0521	   8.731	 128.455
 2142	 10.1200	  6.0571	   8.736	 128.515
 2143	 10.1200	  6.0621	   8.741	 128.575
 2144	 10.1200	  6.0671	   8.746	 128.635
 2145	 10.1200	  6.0721	   8.751	 128.695
 2146	 10.1200	  6.0771	   8.756	 128.755
 2147	 10.1200	  6.0821	   8.761	 128.815
 2148	 10.1200	  6.0871	   8.766	 128.875
 2149	 10.1200	  6.0921	   8.771	 128.935
 2150	 10.1200	  6.0971	   8.776	 128.995
 2151	 10.1200	  6.1021	   8.781	 129.055
 2152	 10.1200	  6.1071	   8.786	 129.115
 2153	 10.1200	  6.1121	   8.791	 129.175
 2154	 10.1200	  6.1171	   8.796	 129.235
 2155	 10.1200	  6.1221	   8.801	 129.295
 2156	 10.1200	  6.1271	   8.806	 129.355
 2157	 10.1400	  6.1321	   8.811	 129.415
 2158	 10.1400	  6.1371	   8.816	 129.475
 2159	 10.1400	  6.1421	   8.821	 129.535
 2160	 10.1400	  6.1471	   8.826	 129.595
 2161	 10.1400	  6.1521	   8.831	 129.655
 2162	 10.1400	  6.1571	   8.836	 129.715
 2163	 10.1400	  6.1621	   8.841	 129.775
 2164	 10.1400	  6.1671	   8.846	 129.835
 2165	 10.1400	  6.1721	   8.851	 129.895
 2166	 10.1400	  6.1771	   8.856	 129.955
 2167	 10.1400	  6.1821	   8.861	 130.015
 2168	 10.1400	  6.1871	   8.866	 130.075
 2169	 10.1400	  6.1921	   8.871	 130.135
 2170	 10.1400	  6.1971	   8.876	 130.195
 2171	 10.1400	  6.2033	   8.882	 130.255
 2172	 10.1400	  6.2083	   8.887	 130.315
 2173	 10.1400	  6.2133	   8.892	 130.375
 2174	 10.1400	  6.2183	   8.898	 130.435
 2175	 10.1400	  6.2233	   8.903	 130.495
 2176	 10.1400	  6.2283	   8.908	 130.555
 2177	 10.1400	  6.2333	   8.912	 130.615
 2178	 10.1400	  6.2383	   8.917	 130.675
 2179	 10.1400	  6.2433	   8.922	 130.735
 2180	 10.1400	  6.2483	   8.927	 130.795
 2181	 10.1400	  6.2533	   8.932	 130.855
 2182	 10.1400	  6.2583	   8.938	 130.915
 2183	 10.1400	  6.2633	   8.943	 130.975
 2184	 10.1400	  6.2683	   8.948	 131.035
 2185	 10.1400	  6.2733	   8.952	 131.095
 2186	 10.1400	  6.2783	   8.957	 131.155
 2187	 10.1400	  6.2833	   8.962	 131.215
 2188	 10.1400	  6.2883	   8.967	 131.275
 2189	 10.1400	  6.2933	   8.972	 131.335
 2190	 10.1400	  6.2983	   8.977	 131.395
 2191	 10.1400	  6.3033	   8.983	 131.455
 2192	 10.1400	  6.3083	   8.988	 131.515
 2193	 10.1400	  6.3133	   8.992	 131.575
 2194	 10.1400	  6.3183	   8.997	 131.635
 2195	 10.1400	  6.3233	   9.002	 131.695
 2196	 10.1400	  6.3283	   9.007	 131.755
 2197	 10.1200	  6.3333	   9.012	 131.815
 2198	 10.1200	  6.3383	   9.017	 131.875
 2199	 10.0800	  6.3433	   9.023	 131.935
 2200	 10.0200	  6.3483	   9.028	 131.995
 2201	 10.0000	  6.3533	   9.033	 132.055
 2202	 10.0000	  6.3583	   9.037	 132.115
 2203	 10.0000	  6.3633	   9.042	 132.175
 2204	 10.0000	  6.3683	   9.047	 132.235
 2205	 10.0000	  6.3733	   9.052	 132.295
 2206	 10.0200	  6.3783	   9.057	 132.355
 2207	 10.0200	  6.3833	   9.062	 132.415
 2208	 10.0200	  6.3883	   9.068	 132.475
 2209	 10.0200	  6.3933	   9.073	 132.535
 2210	 10.0400	  6.3983	   9.077	 132.595
 2211	 10.0400	  6.4033	   9.082	 132.655
 2212	 10.0400	  6.4083	   9.087	 132.715
 2213	 10.0400	  6.4133	   9.092	 132.775
 2214	 10.0400	  6.4183	   9.097	 132.835
 2215	 10.0400	  6.4233	   9.102	 132.895
 2216	 10.0400	  6.4283	   9.108	 132.955
 2217	 10.0400	  6.4333	   9.113	 133.015
 2218	 10.0400	  6.4383	   9.117	 133.075
 2219	 10.0600	  6.4433	   9.122	 133.135
 2220	 10.0600	  6.4483	   9.127	 133.195
 2221	 10.0600	  6.4546	   9.134	 133.255
 2222	 10.0600	  6.4596	   9.139	 133.315
 2223	 10.0600	  6.4646	   9.144	 133.375
 2224	 10.0600	  6.4696	   9.149	 133.435
 2225	 10.0600	  6.4746	   9.154	 133.495
 2226	 10.0600	  6.4796	   9.159	 133.555
 2227	 10.0600	  6.4846	   9.164	 133.615
 2228	 10.0600	  6.4896	   9.169	 133.675
 2229	 10.0800	  6.4946	   9.174	 133.735
 2230	 10.0800	  6.4996	   9.179	 133.795
 2231	 10.0800	  6.5046	   9.184	 133.855
 2232	 10.0800	  6.5096	   9.189	 133.915
 2233	 10.0800	  6.5146	   9.194	 133.975
 2234	 10.0800	  6.5196	   9.199	 134.035
 2235	 10.0800	  6.5246	   9.204	 134.095
 2236	 10.0800	  6.5296	   9.209	 134.155
 2237	 10.0800	  6.5346	   9.214	 134.215
 2238	 10.0800	  6.5396	   9.219	 134.275
 2239	 10.0800	  6.5446	   9.224	 134.335
 2240	 10.0800	  6.5496	   9.229	 134.395
 2241	 10.1000	  6.5546	   9.234	 134.455
 2242	 10.1000	  6.5596	   9.239	 134.515
 2243	 10.1000	  6.5646	   9.244	 134.575
 2244	 10.1000	  6.5696	   9.249	 134.635
 2245	 10.1000	  6.5746	   9.254	 134.695
 2246	 10.1000	  6.5796	   9.259	 134.755
 2247	 10.0800	  6.5846	   9.264	 134.815
 2248	 10.0800	  6.5896	   9.269	 134.875
 2249	 10.0800	  6.5946	   9.274	 134.935
 2250	 10.0800	  6.5996	   9.279	 134.995
 2251	 10.0800	  6.6046	   9.284	 135.055
 2252	 10.0800	  6.6096	   9.289	 135.115
 2253	 10.0800	  6.6146	   9.294	 135.175
 2254	 10.0800	  6.6196	   9.299	 135.235
 2255	 10.0800	  6.6246	   9.304	 135.295
 2256	 10.1000	  6.6296	   9.309	 135.355
 2257	 10.1000	  6.6346	   9.314	 135.415
 2258	 10.1200	  6.6396	   9.319	 135.475
 2259	 10.1200	  6.6446	   9.324	 135.535
 2260	 10.1400	  6.6496	   9.329	 135.595
 2261	 10.1400	  6.6546	   9.334	 135.655
 2262	 10.1400	  6.6596	   9.339	 135.715
 2263	 10.1400	  6.6646	   9.344	 135.775
 2264	 10.1600	  6.6696	   9.349	 135.835
 2265	 10.1600	  6.6746	   9.354	 135.895
 2266	 10.1800	  6.6796	   9.359	 135.955
 2267	 10.1800	  6.6846	   9.364	 136.015
 2268	 10.1800	  6.6896	   9.369	 136.075
 2269	 10.2000	  6.6946	   9.374	 136.135
 2270	 10.2000	  6.6996	   9.379	 136.195
 2271	 10.2200	  6.7046	   9.384	 136.255
 2272	 10.2200	  6.7096	   9.389	 136.315
 2273	 10.2200	  6.7146	   9.394	 136.375
 2274	 10.2200	  6.7196	   9.399	 136.435
 2275	 10.2400	  6.7246	   9.404	 136.495
 2276	 10.2400	  6.7296	   9.409	 136.555
 2277	 10.2400	  6.7346	   9.414	 136.615
 2278	 10.2400	  6.7396	   9.419	 136.675
 2279	 10.2600	  6.7446	   9.424	 136.735
 2280	 10.2600	  6.7496	   9.429	 136.795
 2281	 10.2800	  6.7546	   9.434	 136.855
 2282	 10.2800	  6.7608	   9.440	 136.915
 2283	 10.2800	  6.7646	   9.444	 136.975
 2284	 10.2800	  6.7708	   9.450	 137.035
 2285	 10.2800	  6.7758	   9.455	 137.095
 2286	 10.2800	  6.7808	   9.460	 137.155
 2287	 10.2800	  6.7858	   9.465	 137.215
 2288	 10.3000	  6.7908	   9.470	 137.275
 2289	 10.3000	  6.7958	   9.475	 137.335
 2290	 10.3000	  6.8008	   9.480	 137.395
 2291	 10.3000	  6.8058	   9.485	 137.455
 2292	 10.3000	  6.8108	   9.490	 137.515
 2293	 10.3000	  6.8158	   9.495	 137.575
 2294	 10.3200	  6.8208	   9.500	 137.635
 2295	 10.3200	  6.8258	   9.505	 137.695
 2296	 10.3200	  6.8308	   9.510	 137.755
 2297	 10.3200	  6.8358	   9.515	 137.815
 2298	 10.3200	  6.8408	   9.520	 137.875
 2299	 10.3200	  6.8458	   9.525	 137.935
 2300	 10.3200	  6.8508	   9.530	 137.995
 2301	 10.3200	  6.8558	   9.535	 138.055
 2302	 10.3200	  6.8608	   9.540	 138.115
 2303	 10.3200	  6.8658	   9.545	 138.175
 2304	 10.3400	  6.8708	   9.550	 138.235
 2305	 10.3400	  6.8758	   9.555	 138.295
 2306	 10.3200	  6.8808	   9.560	 138.355
 2307	 10.3400	  6.8858	   9.565	 138.415
 2308	 10.3400	  6.8908	   9.570	 138.475
 2309	 10.3400	  6.8958	   9.575	 138.535
 2310	 10.3400	  6.9008	   9.580	 138.595
 2311	 10.3400	  6.9058	   9.585	 138.655
 2312	 10.3400	  6.9108	   9.590	 138.715
 2313	 10.3400	  6.9158	   9.595	 138.775
 2314	 10.3400	  6.9208	   9.600	 138.835
 2315	 10.3400	  6.9258	   9.605	 138.895
 2316	 10.3400	  6.9308	   9.610	 138.955
 2317	 10.3400	  6.9358	   9.615	 139.015
 2318	 10.3400	  6.9408	   9.620	 139.075
 2319	 10.3400	  6.9458	   9.625	 139.135
 2320	 10.3400	  6.9521	   9.631	 139.195
 2321	 10.3400	  6.9558	   9.635	 139.255
 2322	 10.3400	  6.9621	   9.641	 139.315
 2323	 10.3400	  6.9658	   9.645	 139.375
 2324	 10.3400	  6.9721	   9.651	 139.435
 2325	 10.3400	  6.9758	   9.655	 139.495
 2326	 10.3400	  6.9821	   9.661	 139.555
 2327	 10.3400	  6.9871	   9.666	 139.615
 2328	 10.3400	  6.9921	   9.671	 139.675
 2329	 10.3400	  6.9971	   9.676	 139.735
 2330	 10.3400	  7.0021	   9.681	 139.795
 2331	 10.3400	  7.0071	   9.686	 139.855
 2332	 10.3400	  7.0121	   9.691	 139.915
 2333	 10.3400	  7.0171	   9.696	 139.975
 2334	 10.3400	  7.0221	   9.701	 140.035
 2335	 10.3400	  7.0271	   9.706	 140.095
 2336	 10.3400	  7.0321	   9.711	 140.155
 2337	 10.3400	  7.0371	   9.716	 140.215
 2338	 10.3400	  7.0421	   9.721	 140.275
 2339	 10.3400	  7.0471	   9.726	 140.335
 2340	 10.3400	  7.0521	   9.731	 140.395
 2341	 10.3400	  7.0571	   9.736	 140.455
 2342	 10.3200	  7.0621	   9.741	 140.515
 2343	 10.3200	  7.0671	   9.746	 140.575
 2344	 10.3200	  7.0721	   9.751	 140.635
 2345	 10.3200	  7.0771	   9.756	 140.695
 2346	 10.3200	  7.0821	   9.761	 140.755
 2347	 10.3200	  7.0871	   9.766	 140.815
 2348	 10.3200	  7.0921	   9.771	 140.875
 2349	 10.3400	  7.0971	   9.776	 140.935
 2350	 10.3400	  7.1021	   9.781	 140.995
 2351	 10.3600	  7.1071	   9.786	 141.055
 2352	 10.3600	  7.1121	   9.791	 141.115
 2353	 10.3800	  7.1171	   9.796	 141.175
 2354	 10.3800	  7.1221	   9.801	 141.235
 2355	 10.4000	  7.1271	   9.806	 141.295
 2356	 10.4000	  7.1321	   9.811	 141.355
 2357	 10.4000	  7.1371	   9.816	 141.415
 2358	 10.3600	  7.1421	   9.821	 141.475
 2359	 10.3200	  7.1471	   9.826	 141.535
 2360	 10.2600	  7.1533	   9.832	 141.595
 2361	 10.2400	  7.1571	   9.836	 141.655
 2362	 10.2200	  7.1633	   9.842	 141.715
 2363	 10.2000	  7.1671	   9.846	 141.775
 2364	 10.2000	  7.1733	   9.852	 141.835
 2365	 10.2000	  7.1783	   9.858	 141.895
 2366	 10.2000	  7.1833	   9.863	 141.955
 2367	 10.2000	  7.1883	   9.867	 142.015
 2368	 10.1800	  7.1933	   9.872	 142.075
 2369	 10.2000	  7.1983	   9.877	 142.135
 2370	 10.2000	  7.2033	   9.882	 142.195
 2371	 10.2000	  7.2083	   9.887	 142.255
 2372	 10.2000	  7.2133	   9.892	 142.315
 2373	 10.2000	  7.2183	   9.898	 142.375
 2374	 10.2000	  7.2233	   9.903	 142.435
 2375	 10.2000	  7.2283	   9.907	 142.495
 2376	 10.2000	  7.2333	   9.912	 142.555
 2377	 10.2000	  7.2383	   9.917	 142.615
 2378	 10.2000	  7.2433	   9.922	 142.675
 2379	 10.2000	  7.2483	   9.927	 142.735
 2380	 10.2000	  7.2533	   9.932	 142.795
 2381	 10.2000	  7.2583	   9.938	 142.855
 2382	 10.2000	  7.2633	   9.943	 142.915
 2383	 10.2000	  7.2683	   9.948	 142.975
 2384	 10.2200	  7.2733	   9.952	 143.035
 2385	 10.2200	  7.2783	   9.957	 143.095
 2386	 10.2200	  7.2833	   9.962	 143.155
 2387	 10.2200	  7.2883	   9.967	 143.215
 2388	 10.2200	  7.2933	   9.972	 143.275
 2389	 10.2200	  7.2983	   9.977	 143.335
 2390	 10.2200	  7.3033	   9.983	 143.395
 2391	 10.2200	  7.3083	   9.988	 143.455
 2392	 10.2200	  7.3133	   9.992	 143.515
 2393	 10.2200	  7.3183	   9.997	 143.575
 2394	 10.2200	  7.3233	  10.002	 143.635
 2395	 10.2200	  7.3283	  10.007	 143.695
 2396	 10.2200	  7.3333	  10.012	 143.755
 2397	 10.2400	  7.3383	  10.017	 143.815
 2398	 10.2400	  7.3446	  10.024	 143.875
 2399	 10.2400	  7.3483	  10.028	 143.935
 2400	 10.2400	  7.3533	  10.032	 143.995
 2401	 10.2400	  7.3583	  10.037	 144.055
 2402	 10.2400	  7.3646	  10.044	 144.115
 2403	 10.2400	  7.3696	  10.049	 144.175
 2404	 10.2400	  7.3746	  10.054	 144.235
 2405	 10.2400	  7.3796	  10.059	 144.295
 2406	 10.2400	  7.3846	  10.064	 144.355
 2407	 10.2400	  7.3896	  10.069	 144.415
 2408	 10.2400	  7.3946	  10.074	 144.475
 2409	 10.2400	  7.3996	  10.079	 144.535
 2410	 10.2400	  7.4046	  10.084	 144.595
 2411	 10.2400	  7.4096	  10.089	 144.655
 2412	 10.2600	  7.4146	  10.094	 144.715
 2413	 10.2600	  7.4196	  10.099	 144.775
 2414	 10.2600	  7.4246	  10.104	 144.835
 2415	 10.2600	  7.4296	  10.109	 144.895
 2416	 10.2600	  7.4346	  10.114	 144.955
 2417	 10.2600	  7.4396	  10.119	 145.015
 2418	 10.2600	  7.4446	  10.124	 145.075
 2419	 10.2600	  7.4496	  10.129	 145.135
 2420	 10.2600	  7.4546	  10.134	 145.195
 2421	 10.2600	  7.4596	  10.139	 145.255
 2422	 10.2600	  7.4646	  10.144	 145.315
 2423	 10.2600	  7.4696	  10.149	 145.375
 2424	 10.2600	  7.4746	  10.154	 145.435
 2425	 10.2600	  7.4796	  10.159	 145.495
 2426	 10.2600	  7.4846	  10.164	 145.555
 2427	 10.2600	  7.4896	  10.169	 145.615
 2428	 10.2800	  7.4946	  10.174	 145.675
 2429	 10.2800	  7.4996	  10.179	 145.735
 2430	 10.2800	  7.5046	  10.184	 145.795
 2431	 10.2800	  7.5096	  10.189	 145.855
 2432	 10.2800	  7.5146	  10.194	 145.915
 2433	 10.2800	  7.5196	  10.199	 145.975
 2434	 10.2800	  7.5246	  10.204	 146.035
 2435	 10.2800	  7.5296	  10.209	 146.095
 2436	 10.2800	  7.5346	  10.214	 146.155
 2437	 10.2800	  7.5396	  10.219	 146.215
 2438	 10.2800	  7.5446	  10.224	 146.275
 2439	 10.2800	  7.5496	  10.229	 146.335
 2440	 10.2800	  7.5546	  10.234	 146.395
 2441	 10.2800	  7.5596	  10.239	 146.455
 2442	 10.2800	  7.5646	  10.244	 146.515
 2443	 10.2800	  7.5696	  10.249	 146.575
 2444	 10.2800	  7.5746	  10.254	 146.635
 2445	 10.2800	  7.5796	  10.259	 146.695
 2446	 10.2800	  7.5846	  10.264	 146.755
 2447	 10.3000	  7.5896	  10.269	 146.815
 2448	 10.2800	  7.5958	  10.275	 146.875
 2449	 10.3000	  7.6008	  10.280	 146.935
 2450	 10.3000	  7.6058	  10.285	 146.995
 2451	 10.3000	  7.6108	  10.290	 147.055
 2452	 10.3000	  7.6158	  10.295	 147.115
 2453	 10.3000	  7.6208	  10.300	 147.175
 2454	 10.3000	  7.6258	  10.305	 147.235
 2455	 10.3000	  7.6308	  10.310	 147.295
 2456	 10.3000	  7.6358	  10.315	 147.355
 2457	 10.3000	  7.6408	  10.320	 147.415
 2458	 10.3000	  7.6458	  10.325	 147.475
 2459	 10.3000	  7.6508	  10.330	 147.535
 2460	 10.3000	  7.6558	  10.335	 147.595
 2461	 10.3000	  7.6608	  10.340	 147.655
 2462	 10.3000	  7.6658	  10.345	 147.715
 2463	 10.3000	  7.6708	  10.350	 147.775
 2464	 10.3000	  7.6758	  10.355	 147.835
 2465	 10.3000	  7.6808	  10.360	 147.895
 2466	 10.3200	  7.6858	  10.365	 147.955
 2467	 10.3200	  7.6908	  10.370	 148.015
 2468	 10.3200	  7.6958	  10.375	 148.075
 2469	 10.3200	  7.7008	  10.380	 148.135
 2470	 10.3200	  7.7058	  10.385	 148.195
 2471	 10.3200	  7.7108	  10.390	 148.255
 2472	 10.3200	  7.7158	  10.395	 148.315
 2473	 10.3200	  7.7208	  10.400	 148.375
 2474	 10.3200	  7.7258	  10.405	 148.435
 2475	 10.3200	  7.7308	  10.410	 148.495
 2476	 10.3200	  7.7358	  10.415	 148.555
 2477	 10.3200	  7.7408	  10.420	 148.615
 2478	 10.3200	  7.7458	  10.425	 148.675
 2479	 10.3200	  7.7508	  10.430	 148.735
 2480	 10.3200	  7.7558	  10.435	 148.795
 2481	 10.3200	  7.7608	  10.440	 148.855
 2482	 10.3200	  7.7658	  10.445	 148.915
 2483	 10.3200	  7.7708	  10.450	 148.975
 2484	 10.3200	  7.7758	  10.455	 149.035
 2485	 10.3200	  7.7808	  10.460	 149.095
 2486	 10.3200	  7.7858	  10.465	 149.155
 2487	 10.3200	  7.7908	  10.470	 149.215
 2488	 10.3200	  7.7958	  10.475	 149.275
 2489	 10.3200	  7.8008	  10.480	 149.335
 2490	 10.3200	  7.8058	  10.485	 149.395
 2491	 10.3200	  7.8108	  10.490	 149.455
 2492	 10.3400	  7.8158	  10.495	 149.515
 2493	 10.3400	  7.8208	  10.500	 149.575
 2494	 10.3200	  7.8258	  10.505	 149.635
 2495	 10.3400	  7.8321	  10.511	 149.695
 2496	 10.3400	  7.8358	  10.515	 149.755
 2497	 10.3200	  7.8421	  10.521	 149.815
 2498	 10.3400	  7.8458	  10.525	 149.875
 2499	 10.3400	  7.8521	  10.531	 149.935
 2500	 10.3400	  7.8558	  10.535	 149.995
 2501	 10.3400	  7.8621	  10.541	 150.055
 2502	 10.3400	  7.8658	  10.545	 150.115
 2503	 10.3400	  7.8721	  10.551	 150.175
 2504	 10.3400	  7.8758	  10.555	 150.235
 2505	 10.3400	  7.8821	  10.561	 150.295
 2506	 10.3400	  7.8871	  10.566	 150.355
 2507	 10.3400	  7.8921	  10.571	 150.415
 2508	 10.3400	  7.8958	  10.575	 150.475
 2509	 10.3400	  7.9021	  10.581	 150.535
 2510	 10.3400	  7.9071	  10.586	 150.595
 2511	 10.3400	  7.9121	  10.591	 150.655
 2512	 10.3400	  7.9171	  10.596	 150.715
 2513	 10.3400	  7.9221	  10.601	 150.775
 2514	 10.3400	  7.9271	  10.606	 150.835
 2515	 10.3600	  7.9321	  10.611	 150.895
 2516	 10.3600	  7.9371	  10.616	 150.955
 2517	 10.3600	  7.9421	  10.621	 151.015
 2518	 10.3600	  7.9471	  10.626	 151.075
 2519	 10.3600	  7.9521	  10.631	 151.135
 2520	 10.3600	  7.9571	  10.636	 151.195
 2521	 10.3600	  7.9621	  10.641	 151.255
 2522	 10.3600	  7.9671	  10.646	 151.315
 2523	 10.3800	  7.9721	  10.651	 151.375
 2524	 10.3800	  7.9771	  10.656	 151.435
 2525	 10.3800	  7.9821	  10.661	 151.495
 2526	 10.3800	  7.9871	  10.666	 151.555
 2527	 10.3800	  7.9921	  10.671	 151.615
 2528	 10.3800	  7.9971	  10.676	 151.675
 2529	 10.3800	  8.0021	  10.681	 151.735
 2530	 10.3800	  8.0071	  10.686	 151.795
 2531	 10.3800	  8.0121	  10.691	 151.855
 2532	 10.4000	  8.0171	  10.696	 151.915
 2533	 10.4000	  8.0221	  10.701	 151.975
 2534	 10.4000	  8.0271	  10.706	 152.035
 2535	 10.4000	  8.0321	  10.711	 152.095
 2536	 10.4000	  8.0371	  10.716	 152.155
 2537	 10.4000	  8.0421	  10.721	 152.215
 2538	 10.4000	  8.0471	  10.726	 152.275
 2539	 10.4000	  8.0521	  10.731	 152.335
 2540	 10.4000	  8.0571	  10.736	 152.395
 2541	 10.4000	  8.0621	  10.741	 152.455
 2542	 10.4000	  8.0671	  10.746	 152.515
 2543	 10.4000	  8.0721	  10.751	 152.575
 2544	 10.4000	  8.0771	  10.756	 152.635
 2545	 10.4200	  8.0821	  10.761	 152.695
 2546	 10.4200	  8.0871	  10.766	 152.755
 2547	 10.4200	  8.0933	  10.773	 152.815
 2548	 10.4200	  8.0971	  10.776	 152.875
 2549	 10.4200	  8.1033	  10.782	 152.935
 2550	 10.4200	  8.1083	  10.787	 152.995
 2551	 10.4200	  8.1133	  10.792	 153.055
 2552	 10.4200	  8.1183	  10.797	 153.115
 2553	 10.4200	  8.1233	  10.802	 153.175
 2554	 10.4200	  8.1283	  10.807	 153.235
 2555	 10.4200	  8.1333	  10.812	 153.295
 2556	 10.4200	  8.1383	  10.818	 153.355
 2557	 10.4200	  8.1433	  10.823	 153.415
 2558	 10.4200	  8.1483	  10.827	 153.475
 2559	 10.4000	  8.1533	  10.832	 153.535
 2560	 10.4000	  8.1583	  10.837	 153.595
 2561	 10.4000	  8.1633	  10.842	 153.655
 2562	 10.4000	  8.1683	  10.847	 153.715
 2563	 10.4000	  8.1733	  10.852	 153.775
 2564	 10.4000	  8.1783	  10.858	 153.835
 2565	 10.4000	  8.1833	  10.863	 153.895
 2566	 10.4000	  8.1883	  10.867	 153.955
 2567	 10.3800	  8.1933	  10.872	 154.015
 2568	 10.3800	  8.1983	  10.877	 154.075
 2569	 10.3800	  8.2033	  10.882	 154.135
 2570	 10.3800	  8.2083	  10.887	 154.195
 2571	 10.3800	  8.2133	  10.892	 154.255
 2572	 10.3800	  8.2183	  10.898	 154.315
 2573	 10.3800	  8.2233	  10.903	 154.375
 2574	 10.3800	  8.2283	  10.907	 154.435
 2575	 10.3800	  8.2333	  10.912	 154.495
 2576	 10.3600	  8.2383	  10.917	 154.555
 2577	 10.3800	  8.2433	  10.922	 154.615
 2578	 10.3800	  8.2483	  10.927	 154.675
 2579	 10.3600	  8.2533	  10.932	 154.735
 2580	 10.3600	  8.2583	  10.938	 154.795
 2581	 10.3600	  8.2633	  10.943	 154.855
 2582	 10.3600	  8.2683	  10.948	 154.915
 2583	 10.3600	  8.2733	  10.952	 154.975
 2584	 10.3600	  8.2783	  10.957	 155.035
 2585	 10.3600	  8.2833	  10.962	 155.095
 2586	 10.3600	  8.2883	  10.967	 155.155
 2587	 10.3600	  8.2933	  10.972	 155.215
 2588	 10.3600	  8.2983	  10.977	 155.275
 2589	 10.3600	  8.3046	  10.984	 155.335
 2590	 10.3600	  8.3096	  10.989	 155.395
 2591	 10.3600	  8.3146	  10.994	 155.455
 2592	 10.3600	  8.3196	  10.999	 155.515
 2593	 10.3600	  8.3246	  11.004	 155.575
 2594	 10.3600	  8.3296	  11.009	 155.635
 2595	 10.3600	  8.3346	  11.014	 155.695
 2596	 10.3600	  8.3396	  11.019	 155.755
 2597	 10.3600	  8.3446	  11.024	 155.815
 2598	 10.3600	  8.3496	  11.029	 155.875
 2599	 10.3400	  8.3546	  11.034	 155.935
 2600	 10.3400	  8.3596	  11.039	 155.995
 2601	 10.3600	  8.3646	  11.044	 156.055
 2602	 10.3600	  8.3696	  11.049	 156.115
 2603	 10.3600	  8.3746	  11.054	 156.175
 2604	 10.3400	  8.3796	  11.059	 156.235
 2605	 10.3600	  8.3846	  11.064	 156.295
 2606	 10.3600	  8.3896	  11.069	 156.355
 2607	 10.3600	  8.3946	  11.074	 156.415
 2608	 10.3600	  8.3996	  11.079	 156.475
 2609	 10.3600	  8.4046	  11.084	 156.535
 2610	 10.3600	  8.4096	  11.089	 156.595
 2611	 10.3600	  8.4146	  11.094	 156.655
 2612	 10.3600	  8.4196	  11.099	 156.715
 2613	 10.3600	  8.4246	  11.104	 156.775
 2614	 10.3600	  8.4296	  11.109	 156.835
 2615	 10.3600	  8.4346	  11.114	 156.895
 2616	 10.3600	  8.4396	  11.119	 156.955
 2617	 10.3600	  8.4446	  11.124	 157.015
 2618	 10.3600	  8.4496	  11.129	 157.075
 2619	 10.3600	  8.4546	  11.134	 157.135
 2620	 10.3600	  8.4596	  11.139	 157.195
 2621	 10.3600	  8.4646	  11.144	 157.255
 2622	 10.3600	  8.4696	  11.149	 157.315
 2623	 10.3600	  8.4746	  11.154	 157.375
 2624	 10.3600	  8.4796	  11.159	 157.435
 2625	 10.3600	  8.4846	  11.164	 157.495
 2626	 10.3600	  8.4896	  11.169	 157.555
 2627	 10.3800	  8.4946	  11.174	 157.615
 2628	 10.3800	  8.4996	  11.179	 157.675
 2629	 10.3800	  8.5046	  11.184	 157.735
 2630	 10.3600	  8.5108	  11.190	 157.795
 2631	 10.3800	  8.5146	  11.194	 157.855
 2632	 10.3800	  8.5208	  11.200	 157.915
 2633	 10.3800	  8.5246	  11.204	 157.975
 2634	 10.3800	  8.5296	  11.209	 158.035
 2635	 10.3800	  8.5358	  11.215	 158.095
 2636	 10.3800	  8.5408	  11.220	 158.155
 2637	 10.3800	  8.5458	  11.225	 158.215
 2638	 10.3800	  8.5508	  11.230	 158.275
 2639	 10.3800	  8.5558	  11.235	 158.335
 2640	 10.3800	  8.5608	  11.240	 158.395
 2641	 10.3800	  8.5658	  11.245	 158.455
 2642	 10.3800	  8.5708	  11.250	 158.515
 2643	 10.3800	  8.5758	  11.255	 158.575
 2644	 10.3800	  8.5808	  11.260	 158.635
 2645	 10.3800	  8.5858	  11.265	 158.695
 2646	 10.3800	  8.5908	  11.270	 158.755
 2647	 10.3800	  8.5958	  11.275	 158.815
 2648	 10.3800	  8.6008	  11.280	 158.875
 2649	 10.3800	  8.6058	  11.285	 158.935
 2650	 10.3800	  8.6108	  11.290	 158.995
 2651	 10.3800	  8.6158	  11.295	 159.055
 2652	 10.3800	  8.6208	  11.300	 159.115
 2653	 10.3800	  8.6258	  11.305	 159.175
 2654	 10.3800	  8.6308	  11.310	 159.235
 2655	 10.3800	  8.6358	  11.315	 159.295
 2656	 10.3800	  8.6408	  11.320	 159.355
 2657	 10.3800	  8.6458	  11.325	 159.415
 2658	 10.3800	  8.6508	  11.330	 159.475
 2659	 10.3800	  8.6558	  11.335	 159.535
 2660	 10.3800	  8.6608	  11.340	 159.595
 2661	 10.3800	  8.6658	  11.345	 159.655
 2662	 10.3800	  8.6708	  11.350	 159.715
 2663	 10.3800	  8.6758	  11.355	 159.775
 2664	 10.3800	  8.6808	  11.360	 159.835
 2665	 10.3800	  8.6858	  11.365	 159.895
 2666	 10.3800	  8.6908	  11.370	 159.955
 2667	 10.3800	  8.6958	  11.375	 160.015
 2668	 10.3800	  8.6996	  11.379	 160.075
 2669	 10.3800	  8.7046	  11.384	 160.135
 2670	 10.3800	  8.7096	  11.389	 160.195
 2671	 10.3800	  8.7146	  11.394	 160.255
 2672	 10.3800	  8.7196	  11.399	 160.315
 2673	 10.3800	  8.7246	  11.404	 160.375
 2674	 10.3800	  8.7296	  11.409	 160.435
 2675	 10.3800	  8.7346	  11.414	 160.495
 2676	 10.3800	  8.7396	  11.419	 160.555
 2677	 10.3800	  8.7446	  11.424	 160.615
 2678	 10.3800	  8.7496	  11.429	 160.675
 2679	 10.3800	  8.7546	  11.434	 160.735
 2680	 10.3800	  8.7596	  11.439	 160.795
 2681	 10.3800	  8.7646	  11.444	 160.855
 2682	 10.3800	  8.7696	  11.449	 160.915
 2683	 10.3800	  8.7746	  11.454	 160.975
 2684	 10.3800	  8.7796	  11.459	 161.035
 2685	 10.3800	  8.7846	  11.464	 161.095
 2686	 10.3800	  8.7896	  11.469	 161.155
 2687	 10.3800	  8.7946	  11.474	 161.215
 2688	 10.3800	  8.7996	  11.479	 161.275
 2689	 10.3800	  8.8046	  11.484	 161.335
 2690	 10.3800	  8.8096	  11.489	 161.395
 2691	 10.3800	  8.8146	  11.494	 161.455
 2692	 10.3800	  8.8196	  11.499	 161.515
 2693	 10.3800	  8.8246	  11.504	 161.575
 2694	 10.3800	  8.8296	  11.509	 161.635
 2695	 10.3800	  8.8346	  11.514	 161.695
 2696	 10.3800	  8.8396	  11.519	 161.755
 2697	 10.3800	  8.8446	  11.524	 161.815
 2698	 10.3800	  8.8496	  11.529	 161.875
 2699	 10.3800	  8.8546	  11.534	 161.935
 2700	 10.3800	  8.8596	  11.539	 161.995
 2701	 10.3800	  8.8646	  11.544	 162.055
 2702	 10.3800	  8.8696	  11.549	 162.115
 2703	 10.3800	  8.8746	  11.554	 162.175
 2704	 10.3800	  8.8808	  11.560	 162.235
 2705	 10.3800	  8.8858	  11.565	 162.295
 2706	 10.3800	  8.8908	  11.570	 162.355
 2707	 10.3800	  8.8958	  11.575	 162.415
 2708	 10.3800	  8.9008	  11.580	 162.475
 2709	 10.3800	  8.9058	  11.585	 162.535
 2710	 10.3800	  8.9108	  11.590	 162.595
 2711	 10.3800	  8.9158	  11.595	 162.655
 2712	 10.3800	  8.9208	  11.600	 162.715
 2713	 10.3800	  8.9258	  11.605	 162.775
 2714	 10.3800	  8.9308	  11.610	 162.835
 2715	 10.3800	  8.9358	  11.615	 162.895
 2716	 10.3800	  8.9408	  11.620	 162.955
 2717	 10.3800	  8.9458	  11.625	 163.015
 2718	 10.3800	  8.9508	  11.630	 163.075
 2719	 10.3800	  8.9558	  11.635	 163.135
 2720	 10.3800	  8.9608	  11.640	 163.195
 2721	 10.3800	  8.9658	  11.645	 163.255
 2722	 10.3800	  8.9708	  11.650	 163.315
 2723	 10.3800	  8.9758	  11.655	 163.375
 2724	 10.3800	  8.9808	  11.660	 163.435
 2725	 10.3800	  8.9858	  11.665	 163.495
 2726	 10.3800	  8.9908	  11.670	 163.555
 2727	 10.3800	  8.9958	  11.675	 163.615
 2728	 10.3800	  9.0008	  11.680	 163.675
 2729	 10.3800	  9.0058	  11.685	 163.735
 2730	 10.3600	  9.0108	  11.690	 163.795
 2731	 10.3600	  9.0158	  11.695	 163.855
 2732	 10.3800	  9.0208	  11.700	 163.915
 2733	 10.3800	  9.0258	  11.705	 163.975
 2734	 10.3800	  9.0308	  11.710	 164.035
 2735	 10.3600	  9.0358	  11.715	 164.095
 2736	 10.3600	  9.0408	  11.720	 164.155
 2737	 10.3600	  9.0458	  11.725	 164.215
 2738	 10.3600	  9.0508	  11.730	 164.275
 2739	 10.3600	  9.0558	  11.735	 164.335
 2740	 10.3600	  9.0608	  11.740	 164.395
 2741	 10.3600	  9.0658	  11.745	 164.455
 2742	 10.3600	  9.0708	  11.750	 164.515
 2743	 10.3600	  9.0758	  11.755	 164.575
 2744	 10.3600	  9.0808	  11.760	 164.635
 2745	 10.3600	  9.0858	  11.765	 164.695
 2746	 10.3600	  9.0908	  11.770	 164.755
 2747	 10.3600	  9.0958	  11.775	 164.815
 2748	 10.3600	  9.1008	  11.780	 164.875
 2749	 10.3600	  9.1058	  11.785	 164.935
 2750	 10.3600	  9.1108	  11.790	 164.995
 2751	 10.3600	  9.1158	  11.795	 165.055
 2752	 10.3600	  9.1208	  11.800	 165.115
 2753	 10.3600	  9.1258	  11.805	 165.175
 2754	 10.3600	  9.1321	  11.811	 165.235
 2755	 10.3600	  9.1358	  11.815	 165.295
 2756	 10.3600	  9.1421	  11.821	 165.355
 2757	 10.3600	  9.1458	  11.825	 165.415
 2758	 10.3600	  9.1521	  11.831	 165.475
 2759	 10.3600	  9.1558	  11.835	 165.535
 2760	 10.3600	  9.1621	  11.841	 165.595
 2761	 10.3600	  9.1658	  11.845	 165.655
 2762	 10.3600	  9.1721	  11.851	 165.715
 2763	 10.3600	  9.1758	  11.855	 165.775
 2764	 10.3600	  9.1821	  11.861	 165.835
 2765	 10.3400	  9.1858	  11.865	 165.895
 2766	 10.3400	  9.1921	  11.871	 165.955
 2767	 10.3400	  9.1958	  11.875	 166.015
 2768	 10.3400	  9.2021	  11.881	 166.075
 2769	 10.3400	  9.2058	  11.885	 166.135
 2770	 10.3400	  9.2121	  11.891	 166.195
 2771	 10.3400	  9.2158	  11.895	 166.255
 2772	 10.3400	  9.2221	  11.901	 166.315
 2773	 10.3400	  9.2258	  11.905	 166.375
 2774	 10.3400	  9.2321	  11.911	 166.435
 2775	 10.3400	  9.2358	  11.915	 166.495
 2776	 10.3400	  9.2421	  11.921	 166.555
 2777	 10.3400	  9.2458	  11.925	 166.615
 2778	 10.3400	  9.2521	  11.931	 166.675
 2779	 10.3400	  9.2558	  11.935	 166.735
 2780	 10.3400	  9.2608	  11.940	 166.795
 2781	 10.3400	  9.2658	  11.945	 166.855
 2782	 10.3400	  9.2708	  11.950	 166.915
 2783	 10.3400	  9.2758	  11.955	 166.975
 2784	 10.3400	  9.2808	  11.960	 167.035
 2785	 10.3400	  9.2858	  11.965	 167.095
 2786	 10.3400	  9.2908	  11.970	 167.155
 2787	 10.3400	  9.2958	  11.975	 167.215
 2788	 10.3400	  9.3008	  11.980	 167.275
 2789	 10.3400	  9.3058	  11.985	 167.335
 2790	 10.3400	  9.3108	  11.990	 167.395
 2791	 10.3400	  9.3158	  11.995	 167.455
 2792	 10.3400	  9.3208	  12.000	 167.515
 2793	 10.3400	  9.3258	  12.005	 167.575
 2794	 10.3200	  9.3308	  12.010	 167.635
 2795	 10.3200	  9.3358	  12.015	 167.695
 2796	 10.3200	  9.3408	  12.020	 167.755
 2797	 10.3200	  9.3458	  12.025	 167.815
 2798	 10.3200	  9.3508	  12.030	 167.875
 2799	 10.3200	  9.3558	  12.035	 167.935
 2800	 10.3200	  9.3608	  12.040	 167.995
 2801	 10.3200	  9.3658	  12.045	 168.055
 2802	 10.3200	  9.3708	  12.050	 168.115
 2803	 10.3200	  9.3758	  12.055	 168.175
 2804	 10.3200	  9.3808	  12.060	 168.235
 2805	 10.3200	  9.3858	  12.065	 168.295
 2806	 10.3200	  9.3908	  12.070	 168.355
 2807	 10.3200	  9.3958	  12.075	 168.415
 2808	 10.3200	  9.4021	  12.081	 168.475
 2809	 10.3200	  9.4058	  12.085	 168.535
 2810	 10.3200	  9.4121	  12.091	 168.595
 2811	 10.3200	  9.4158	  12.095	 168.655
 2812	 10.3200	  9.4221	  12.101	 168.715
 2813	 10.3200	  9.4258	  12.105	 168.775
 2814	 10.3200	  9.4321	  12.111	 168.835
 2815	 10.3000	  9.4371	  12.116	 168.895
 2816	 10.3000	  9.4421	  12.121	 168.955
 2817	 10.3000	  9.4471	  12.126	 169.015
 2818	 10.3000	  9.4521	  12.131	 169.075
 2819	 10.3000	  9.4571	  12.136	 169.135
 2820	 10.3000	  9.4621	  12.141	 169.195
 2821	 10.3000	  9.4671	  12.146	 169.255
 2822	 10.3000	  9.4721	  12.151	 169.315
 2823	 10.3000	  9.4771	  12.156	 169.375
 2824	 10.3000	  9.4821	  12.161	 169.435
 2825	 10.3000	  9.4871	  12.166	 169.495
 2826	 10.3000	  9.4921	  12.171	 169.555
 2827	 10.3000	  9.4971	  12.176	 169.615
 2828	 10.3000	  9.5021	  12.181	 169.675
 2829	 10.2800	  9.5071	  12.186	 169.735
 2830	 10.3000	  9.5121	  12.191	 169.795
 2831	 10.3000	  9.5171	  12.196	 169.855
 2832	 10.3000	  9.5221	  12.201	 169.915
 2833	 10.2800	  9.5271	  12.206	 169.975
 2834	 10.2800	  9.5321	  12.211	 170.035
 2835	 10.2800	  9.5371	  12.216	 170.095
 2836	 10.2800	  9.5421	  12.221	 170.155
 2837	 10.2800	  9.5471	  12.226	 170.215
 2838	 10.2800	  9.5521	  12.231	 170.275
 2839	 10.2800	  9.5571	  12.236	 170.335
 2840	 10.2800	  9.5621	  12.241	 170.395
 2841	 10.2800	  9.5671	  12.246	 170.455
 2842	 10.2800	  9.5721	  12.251	 170.515
 2843	 10.2800	  9.5771	  12.256	 170.575
 2844	 10.2800	  9.5821	  12.261	 170.635
 2845	 10.2800	  9.5871	  12.266	 170.695
 2846	 10.2800	  9.5921	  12.271	 170.755
 2847	 10.2800	  9.5971	  12.276	 170.815
 2848	 10.2600	  9.6021	  12.281	 170.875
 2849	 10.2600	  9.6071	  12.286	 170.935
 2850	 10.2600	  9.6121	  12.291	 170.995
 2851	 10.2600	  9.6171	  12.296	 171.055
 2852	 10.2600	  9.6221	  12.301	 171.115
 2853	 10.2600	  9.6271	  12.306	 171.175
 2854	 10.2600	  9.6321	  12.311	 171.235
 2855	 10.2600	  9.6371	  12.316	 171.295
 2856	 10.2600	  9.6421	  12.321	 171.355
 2857	 10.2600	  9.6471	  12.326	 171.415
 2858	 10.2600	  9.6521	  12.331	 171.475
 2859	 10.2600	  9.6571	  12.336	 171.535
 2860	 10.2600	  9.6621	  12.341	 171.595
 2861	 10.2600	  9.6671	  12.346	 171.655
 2862	 10.2600	  9.6721	  12.351	 171.715
 2863	 10.2400	  9.6771	  12.356	 171.775
 2864	 10.2400	  9.6821	  12.361	 171.835
 2865	 10.2400	  9.6871	  12.366	 171.895
 2866	 10.2400	  9.6921	  12.371	 171.955
 2867	 10.2400	  9.6971	  12.376	 172.015
 2868	 10.2400	  9.7021	  12.381	 172.075
 2869	 10.2400	  9.7071	  12.386	 172.135
 2870	 10.2400	  9.7121	  12.391	 172.195
 2871	 10.2400	  9.7171	  12.396	 172.255
 2872	 10.2400	  9.7221	  12.401	 172.315
 2873	 10.2400	  9.7271	  12.406	 172.375
 2874	 10.2400	  9.7321	  12.411	 172.435
 2875	 10.2400	  9.7371	  12.416	 172.495
 2876	 10.2400	  9.7421	  12.421	 172.555
 2877	 10.2200	  9.7471	  12.426	 172.615
 2878	 10.2200	  9.7521	  12.431	 172.675
 2879	 10.2200	  9.7571	  12.436	 172.735
 2880	 10.2200	  9.7621	  12.441	 172.795
 2881	 10.2200	  9.7671	  12.446	 172.855
 2882	 10.2200	  9.7721	  12.451	 172.915
 2883	 10.2200	  9.7771	  12.456	 172.975
 2884	 10.2200	  9.7821	  12.461	 173.035
 2885	 10.2200	  9.7871	  12.466	 173.095
 2886	 10.2200	  9.7921	  12.471	 173.155
 2887	 10.2200	  9.7971	  12.476	 173.215
 2888	 10.2200	  9.8021	  12.481	 173.275
 2889	 10.2200	  9.8071	  12.486	 173.335
 2890	 10.2000	  9.8121	  12.491	 173.395
 2891	 10.2000	  9.8171	  12.496	 173.455
 2892	 10.2000	  9.8221	  12.501	 173.515
 2893	 10.2000	  9.8271	  12.506	 173.575
 2894	 10.2000	  9.8321	  12.511	 173.635
 2895	 10.2000	  9.8371	  12.516	 173.695
 2896	 10.2000	  9.8433	  12.523	 173.755
 2897	 10.2000	  9.8471	  12.526	 173.815
 2898	 10.2000	  9.8533	  12.532	 173.875
 2899	 10.2000	  9.8583	  12.537	 173.935
 2900	 10.2000	  9.8633	  12.542	 173.995
 2901	 10.1800	  9.8683	  12.547	 174.055
 2902	 10.1800	  9.8733	  12.552	 174.115
 2903	 10.1800	  9.8783	  12.557	 174.175
 2904	 10.1800	  9.8833	  12.562	 174.235
 2905	 10.1800	  9.8883	  12.568	 174.295
 2906	 10.1800	  9.8933	  12.572	 174.355
 2907	 10.1800	  9.8983	  12.577	 174.415
 2908	 10.1800	  9.9033	  12.582	 174.475
 2909	 10.1800	  9.9083	  12.587	 174.535
 2910	 10.1800	  9.9133	  12.592	 174.595
 2911	 10.1800	  9.9183	  12.597	 174.655
 2912	 10.1800	  9.9233	  12.602	 174.715
 2913	 10.1600	  9.9283	  12.608	 174.775
 2914	 10.1600	  9.9333	  12.613	 174.835
 2915	 10.1600	  9.9383	  12.617	 174.895
 2916	 10.1600	  9.9433	  12.622	 174.955
 2917	 10.1600	  9.9483	  12.627	 175.015
 2918	 10.1600	  9.9533	  12.632	 175.075
 2919	 10.1600	  9.9583	  12.637	 175.135
 2920	 10.1600	  9.9633	  12.642	 175.195
 2921	 10.1600	  9.9683	  12.648	 175.255
 2922	 10.1600	  9.9733	  12.653	 175.315
 2923	 10.1600	  9.9783	  12.657	 175.375
 2924	 10.1400	  9.9833	  12.662	 175.435
 2925	 10.1400	  9.9871	  12.666	 175.495
 2926	 10.1400	  9.9921	  12.671	 175.555
 2927	 10.1400	  9.9971	  12.676	 175.615
 2928	 10.1400	 10.0021	  12.681	 175.675
 2929	 10.1400	 10.0071	  12.686	 175.735
 2930	 10.1400	 10.0121	  12.691	 175.795
 2931	 10.1400	 10.0171	  12.696	 175.855
 2932	 10.1400	 10.0221	  12.701	 175.915
 2933	 10.1400	 10.0271	  12.706	 175.975
 2934	 10.1400	 10.0321	  12.711	 176.035
 2935	 10.1400	 10.0371	  12.716	 176.095
 2936	 10.1400	 10.0421	  12.721	 176.155
 2937	 10.1200	 10.0471	  12.726	 176.215
 2938	 10.1200	 10.0521	  12.731	 176.275
 2939	 10.1200	 10.0571	  12.736	 176.335
 2940	 10.1200	 10.0621	  12.741	 176.395
 2941	 10.1200	 10.0671	  12.746	 176.455
 2942	 10.1200	 10.0721	  12.751	 176.515
 2943	 10.1200	 10.0771	  12.756	 176.575
 2944	 10.1200	 10.0821	  12.761	 176.635
 2945	 10.1000	 10.0871	  12.766	 176.695
 2946	 10.1200	 10.0933	  12.773	 176.755
 2947	 10.1000	 10.0983	  12.778	 176.815
 2948	 10.1000	 10.1033	  12.782	 176.875
 2949	 10.1000	 10.1083	  12.787	 176.935
 2950	 10.1000	 10.1133	  12.792	 176.995
 2951	 10.1000	 10.1183	  12.797	 177.055
 2952	 10.1000	 10.1233	  12.802	 177.115
 2953	 10.1000	 10.1283	  12.807	 177.175
 2954	 10.1000	 10.1333	  12.812	 177.235
 2955	 10.0800	 10.1383	  12.818	 177.295
 2956	 10.0800	 10.1433	  12.822	 177.355
 2957	 10.0800	 10.1483	  12.827	 177.415
 2958	 10.0800	 10.1533	  12.832	 177.475
 2959	 10.0800	 10.1583	  12.837	 177.535
 2960	 10.0800	 10.1633	  12.842	 177.595
 2961	 10.0800	 10.1683	  12.847	 177.655
 2962	 10.0800	 10.1733	  12.852	 177.715
 2963	 10.0800	 10.1783	  12.858	 177.775
 2964	 10.0600	 10.1833	  12.862	 177.835
 2965	 10.0600	 10.1883	  12.867	 177.895
 2966	 10.0600	 10.1933	  12.872	 177.955
 2967	 10.0600	 10.1983	  12.877	 178.015
 2968	 10.0600	 10.2033	  12.882	 178.075
 2969	 10.0600	 10.2083	  12.887	 178.135
 2970	 10.0600	 10.2133	  12.892	 178.195
 2971	 10.0600	 10.2183	  12.898	 178.255
 2972	 10.0600	 10.2233	  12.903	 178.315
 2973	 10.0400	 10.2283	  12.907	 178.375
 2974	 10.0400	 10.2333	  12.912	 178.435
 2975	 10.0400	 10.2383	  12.917	 178.495
 2976	 10.0400	 10.2433	  12.922	 178.555
 2977	 10.0400	 10.2483	  12.927	 178.615
 2978	 10.0400	 10.2533	  12.932	 178.675
 2979	 10.0400	 10.2583	  12.938	 178.735
 2980	 10.0400	 10.2633	  12.943	 178.795
 2981	 10.0200	 10.2683	  12.947	 178.855
 2982	 10.0200	 10.2733	  12.952	 178.915
 2983	 10.0200	 10.2783	  12.957	 178.975
 2984	 10.0200	 10.2833	  12.962	 179.035
 2985	 10.0200	 10.2883	  12.967	 179.095
 2986	 10.0200	 10.2933	  12.972	 179.155
 2987	 10.0200	 10.2983	  12.977	 179.215
 2988	 10.0000	 10.3033	  12.983	 179.275
 2989	 10.0000	 10.3083	  12.987	 179.335
 2990	 10.0000	 10.3133	  12.992	 179.395
 2991	 10.0000	 10.3183	  12.997	 179.455
 2992	 10.0000	 10.3233	  13.002	 179.515
 2993	 10.0000	 10.3283	  13.007	 179.575
 2994	 10.0000	 10.3333	  13.012	 179.635
 2995	  9.9800	 10.3383	  13.017	 179.695
 2996	  9.9800	 10.3433	  13.023	 179.755
 2997	  9.9800	 10.3483	  13.028	 179.815
 2998	  9.9800	 10.3533	  13.032	 179.875
 2999	  9.9800	 10.3583	  13.037	 179.935
 3000	  9.9800	 10.3633	  13.042	 179.995
 3001	  9.9800	 10.3683	  13.047	 180.055
 3002	  9.9800	 10.3733	  13.052	 180.115
 3003	  9.9600	 10.3783	  13.057	 180.175
 3004	  9.9600	 10.3833	  13.062	 180.235
 3005	  9.9600	 10.3883	  13.068	 180.295
 3006	  9.9600	 10.3933	  13.072	 180.355
 3007	  9.9600	 10.3983	  13.077	 180.415
 3008	  9.9600	 10.4033	  13.082	 180.475
 3009	  9.9400	 10.4083	  13.087	 180.535
 3010	  9.9400	 10.4133	  13.092	 180.595
 3011	  9.9400	 10.4183	  13.097	 180.655
 3012	  9.9400	 10.4233	  13.102	 180.715
 3013	  9.9400	 10.4283	  13.108	 180.775
 3014	  9.9400	 10.4333	  13.112	 180.835
 3015	  9.9400	 10.4383	  13.117	 180.895
 3016	  9.9200	 10.4433	  13.122	 180.955
 3017	  9.9200	 10.4483	  13.127	 181.015
 3018	  9.9200	 10.4533	  13.132	 181.075
 3019	  9.9200	 10.4583	  13.137	 181.135
 3020	  9.9200	 10.4633	  13.142	 181.195
 3021	  9.9200	 10.4683	  13.148	 181.255
 3022	  9.9200	 10.4733	  13.153	 181.315
 3023	  9.9000	 10.4796	  13.159	 181.375
 3024	  9.9000	 10.4846	  13.164	 181.435
 3025	  9.9000	 10.4896	  13.169	 181.495
 3026	  9.9000	 10.4946	  13.174	 181.555
 3027	  9.9000	 10.4996	  13.179	 181.615
 3028	  9.9000	 10.5046	  13.184	 181.675
 3029	  9.9000	 10.5096	  13.189	 181.735
 3030	  9.8800	 10.5146	  13.194	 181.795
 3031	  9.8800	 10.5196	  13.199	 181.855
 3032	  9.8800	 10.5246	  13.204	 181.915
 3033	  9.8800	 10.5296	  13.209	 181.975
 3034	  9.8800	 10.5346	  13.214	 182.035
 3035	  9.8600	 10.5396	  13.219	 182.095
 3036	  9.8600	 10.5446	  13.224	 182.155
 3037	  9.8600	 10.5496	  13.229	 182.215
 3038	  9.8600	 10.5546	  13.234	 182.275
 3039	  9.8600	 10.5596	  13.239	 182.335
 3040	  9.8600	 10.5646	  13.244	 182.395
 3041	  9.8400	 10.5696	  13.249	 182.455
 3042	  9.8400	 10.5746	  13.254	 182.515
 3043	  9.8400	 10.5783	  13.257	 182.575
 3044	  9.8400	 10.5846	  13.264	 182.635
 3045	  9.8400	 10.5896	  13.269	 182.695
 3046	  9.8400	 10.5946	  13.274	 182.755
 3047	  9.8400	 10.5996	  13.279	 182.815
 3048	  9.8200	 10.6046	  13.284	 182.875
 3049	  9.8200	 10.6096	  13.289	 182.935
 3050	  9.8200	 10.6146	  13.294	 182.995
 3051	  9.8200	 10.6196	  13.299	 183.055
 3052	  9.8200	 10.6246	  13.304	 183.115
 3053	  9.8000	 10.6296	  13.309	 183.175
 3054	  9.8000	 10.6346	  13.314	 183.235
 3055	  9.8000	 10.6396	  13.319	 183.295
 3056	  9.8000	 10.6446	  13.324	 183.355
 3057	  9.8000	 10.6496	  13.329	 183.415
 3058	  9.8000	 10.6546	  13.334	 183.475
 3059	  9.7800	 10.6596	  13.339	 183.535
 3060	  9.7800	 10.6646	  13.344	 183.595
 3061	  9.7800	 10.6696	  13.349	 183.655
 3062	  9.7800	 10.6746	  13.354	 183.715
 3063	  9.7800	 10.6796	  13.359	 183.775
 3064	  9.7600	 10.6846	  13.364	 183.835
 3065	  9.7600	 10.6896	  13.369	 183.895
 3066	  9.7600	 10.6946	  13.374	 183.955
 3067	  9.7600	 10.6996	  13.379	 184.015
 3068	  9.7600	 10.7046	  13.384	 184.075
 3069	  9.7400	 10.7096	  13.389	 184.135
 3070	  9.7400	 10.7146	  13.394	 184.195
 3071	  9.7400	 10.7196	  13.399	 184.255
 3072	  9.7400	 10.7246	  13.404	 184.315
 3073	  9.7400	 10.7296	  13.409	 184.375
 3074	  9.7400	 10.7346	  13.414	 184.435
 3075	  9.7200	 10.7396	  13.419	 184.495
 3076	  9.7200	 10.7446	  13.424	 184.555
 3077	  9.7200	 10.7496	  13.429	 184.615
 3078	  9.7200	 10.7546	  13.434	 184.675
 3079	  9.7200	 10.7596	  13.439	 184.735
 3080	  9.7000	 10.7646	  13.444	 184.795
 3081	  9.7000	 10.7696	  13.449	 184.855
 3082	  9.7000	 10.7746	  13.454	 184.915
 3083	  9.7000	 10.7796	  13.459	 184.975
 3084	  9.7000	 10.7846	  13.464	 185.035
 3085	  9.6800	 10.7896	  13.469	 185.095
 3086	  9.6800	 10.7946	  13.474	 185.155
 3087	  9.6800	 10.7996	  13.479	 185.215
 3088	  9.6800	 10.8046	  13.484	 185.275
 3089	  9.6600	 10.8096	  13.489	 185.335
 3090	  9.6600	 10.8146	  13.494	 185.395
 3091	  9.6600	 10.8196	  13.499	 185.455
 3092	  9.6600	 10.8246	  13.504	 185.515
 3093	  9.6600	 10.8296	  13.509	 185.575
 3094	  9.6400	 10.8346	  13.514	 185.635
 3095	  9.6400	 10.8396	  13.519	 185.695
 3096	  9.6400	 10.8446	  13.524	 185.755
 3097	  9.6400	 10.8508	  13.530	 185.815
 3098	  9.6400	 10.8558	  13.535	 185.875
 3099	  9.6200	 10.8608	  13.540	 185.935
 3100	  9.6200	 10.8658	  13.545	 185.995
 3101	  9.6200	 10.8708	  13.550	 186.055
 3102	  9.6200	 10.8758	  13.555	 186.115
 3103	  9.6000	 10.8808	  13.560	 186.175
 3104	  9.6000	 10.8858	  13.565	 186.235
 3105	  9.6000	 10.8908	  13.570	 186.295
 3106	  9.6000	 10.8958	  13.575	 186.355
 3107	  9.5800	 10.9008	  13.580	 186.415
 3108	  9.5800	 10.9058	  13.585	 186.475
 3109	  9.5800	 10.9096	  13.589	 186.535
 3110	  9.5800	 10.9146	  13.594	 186.595
 3111	  9.5800	 10.9208	  13.600	 186.655
 3112	  9.5600	 10.9258	  13.605	 186.715
 3113	  9.5600	 10.9308	  13.610	 186.775
 3114	  9.5600	 10.9358	  13.615	 186.835
 3115	  9.5600	 10.9408	  13.620	 186.895
 3116	  9.5600	 10.9458	  13.625	 186.955
 3117	  9.5400	 10.9508	  13.630	 187.015
 3118	  9.5400	 10.9558	  13.635	 187.075
 3119	  9.5400	 10.9608	  13.640	 187.135
 3120	  9.5400	 10.9658	  13.645	 187.195
 3121	  9.5200	 10.9696	  13.649	 187.255
 3122	  9.5200	 10.9746	  13.654	 187.315
 3123	  9.5200	 10.9796	  13.659	 187.375
 3124	  9.5200	 10.9846	  13.664	 187.435
 3125	  9.5200	 10.9896	  13.669	 187.495
 3126	  9.5000	 10.9946	  13.674	 187.555
 3127	  9.5000	 10.9996	  13.679	 187.615
 3128	  9.5000	 11.0046	  13.684	 187.675
 3129	  9.5000	 11.0096	  13.689	 187.735
 3130	  9.4800	 11.0146	  13.694	 187.795
 3131	  9.4800	 11.0196	  13.699	 187.855
 3132	  9.4800	 11.0246	  13.704	 187.915
 3133	  9.4800	 11.0296	  13.709	 187.975
 3134	  9.4600	 11.0346	  13.714	 188.035
 3135	  9.4600	 11.0396	  13.719	 188.095
 3136	  9.4600	 11.0446	  13.724	 188.155
 3137	  9.4400	 11.0496	  13.729	 188.215
 3138	  9.4400	 11.0546	  13.734	 188.275
 3139	  9.4400	 11.0608	  13.740	 188.335
 3140	  9.4400	 11.0646	  13.744	 188.395
 3141	  9.4400	 11.0708	  13.750	 188.455
 3142	  9.4200	 11.0746	  13.754	 188.515
 3143	  9.4200	 11.0796	  13.759	 188.575
 3144	  9.4200	 11.0858	  13.765	 188.635
 3145	  9.4200	 11.0908	  13.770	 188.695
 3146	  9.4000	 11.0958	  13.775	 188.755
 3147	  9.4000	 11.1008	  13.780	 188.815
 3148	  9.4000	 11.1058	  13.785	 188.875
 3149	  9.3800	 11.1108	  13.790	 188.935
 3150	  9.3800	 11.1158	  13.795	 188.995
 3151	  9.3800	 11.1208	  13.800	 189.055
 3152	  9.3800	 11.1258	  13.805	 189.115
 3153	  9.3600	 11.1308	  13.810	 189.175
 3154	  9.3600	 11.1358	  13.815	 189.235
 3155	  9.3600	 11.1408	  13.820	 189.295
 3156	  9.3600	 11.1458	  13.825	 189.355
 3157	  9.3400	 11.1508	  13.830	 189.415
 3158	  9.3400	 11.1558	  13.835	 189.475
 3159	  9.3400	 11.1608	  13.840	 189.535
 3160	  9.3400	 11.1658	  13.845	 189.595
 3161	  9.3200	 11.1708	  13.850	 189.655
 3162	  9.3200	 11.1758	  13.855	 189.715
 3163	  9.3200	 11.1808	  13.860	 189.775
 3164	  9.3000	 11.1858	  13.865	 189.835
 3165	  9.3000	 11.1908	  13.870	 189.895
 3166	  9.3000	 11.1958	  13.875	 189.955
 3167	  9.3000	 11.2008	  13.880	 190.015
 3168	  9.2800	 11.2058	  13.885	 190.075
 3169	  9.2800	 11.2108	  13.890	 190.135
 3170	  9.2800	 11.2158	  13.895	 190.195
 3171	  9.2600	 11.2208	  13.900	 190.255
 3172	  9.2600	 11.2258	  13.905	 190.315
 3173	  9.2600	 11.2308	  13.910	 190.375
 3174	  9.2600	 11.2358	  13.915	 190.435
 3175	  9.2400	 11.2408	  13.920	 190.495
 3176	  9.2400	 11.2458	  13.925	 190.555
 3177	  9.2400	 11.2508	  13.930	 190.615
 3178	  9.2200	 11.2558	  13.935	 190.675
 3179	  9.2200	 11.2608	  13.940	 190.735
 3180	  9.2200	 11.2658	  13.945	 190.795
 3181	  9.2000	 11.2708	  13.950	 190.855
 3182	  9.2000	 11.2758	  13.955	 190.915
 3183	  9.2000	 11.2808	  13.960	 190.975
 3184	  9.2000	 11.2858	  13.965	 191.035
 3185	  9.1800	 11.2908	  13.970	 191.095
 3186	  9.1800	 11.2958	  13.975	 191.155
 3187	  9.1800	 11.3021	  13.981	 191.215
 3188	  9.1600	 11.3058	  13.985	 191.275
 3189	  9.1600	 11.3121	  13.991	 191.335
 3190	  9.1600	 11.3158	  13.995	 191.395
 3191	  9.1600	 11.3221	  14.001	 191.455
 3192	  9.1400	 11.3258	  14.005	 191.515
 3193	  9.1400	 11.3321	  14.011	 191.575
 3194	  9.1400	 11.3371	  14.016	 191.635
 3195	  9.1200	 11.3421	  14.021	 191.695
 3196	  9.1200	 11.3471	  14.026	 191.755
 3197	  9.1200	 11.3521	  14.031	 191.815
 3198	  9.1000	 11.3571	  14.036	 191.875
 3199	  9.1000	 11.3621	  14.041	 191.935
 3200	  9.1000	 11.3671	  14.046	 191.995
 3201	  9.0800	 11.3721	  14.051	 192.055
 3202	  9.0800	 11.3771	  14.056	 192.115
 3203	  9.0800	 11.3821	  14.061	 192.175
 3204	  9.0800	 11.3871	  14.066	 192.235
 3205	  9.0600	 11.3921	  14.071	 192.295
 3206	  9.0600	 11.3971	  14.076	 192.355
 3207	  9.0600	 11.4021	  14.081	 192.415
 3208	  9.0400	 11.4071	  14.086	 192.475
 3209	  9.0400	 11.4121	  14.091	 192.535
 3210	  9.0400	 11.4171	  14.096	 192.595
 3211	  9.0200	 11.4221	  14.101	 192.655
 3212	  9.0200	 11.4271	  14.106	 192.715
 3213	  9.0000	 11.4321	  14.111	 192.775
 3214	  9.0000	 11.4371	  14.116	 192.835
 3215	  9.0000	 11.4421	  14.121	 192.895
 3216	  9.0000	 11.4471	  14.126	 192.955
 3217	  8.9800	 11.4521	  14.131	 193.015
 3218	  8.9800	 11.4571	  14.136	 193.075
 3219	  8.9800	 11.4621	  14.141	 193.135
 3220	  8.9600	 11.4671	  14.146	 193.195
 3221	  8.9600	 11.4721	  14.151	 193.255
 3222	  8.9600	 11.4771	  14.156	 193.315
 3223	  8.9400	 11.4821	  14.161	 193.375
 3224	  8.9400	 11.4871	  14.166	 193.435
 3225	  8.9400	 11.4921	  14.171	 193.495
 3226	  8.9200	 11.4971	  14.176	 193.555
 3227	  8.9200	 11.5021	  14.181	 193.615
 3228	  8.9200	 11.5071	  14.186	 193.675
 3229	  8.9000	 11.5121	  14.191	 193.735
 3230	  8.9000	 11.5171	  14.196	 193.795
 3231	  8.9000	 11.5221	  14.201	 193.855
 3232	  8.8800	 11.5271	  14.206	 193.915
 3233	  8.8800	 11.5321	  14.211	 193.975
 3234	  8.8800	 11.5371	  14.216	 194.035
 3235	  8.8600	 11.5421	  14.221	 194.095
 3236	  8.8600	 11.5471	  14.226	 194.155
 3237	  8.8400	 11.5521	  14.231	 194.215
 3238	  8.8400	 11.5571	  14.236	 194.275
 3239	  8.8400	 11.5621	  14.241	 194.335
 3240	  8.8200	 11.5671	  14.246	 194.395
 3241	  8.8200	 11.5721	  14.251	 194.455
 3242	  8.8000	 11.5771	  14.256	 194.515
 3243	  8.8000	 11.5821	  14.261	 194.575
 3244	  8.8000	 11.5871	  14.266	 194.635
 3245	  8.8000	 11.5921	  14.271	 194.695
 3246	  8.7800	 11.5971	  14.276	 194.755
 3247	  8.7800	 11.6021	  14.281	 194.815
 3248	  8.7600	 11.6071	  14.286	 194.875
 3249	  8.7600	 11.6121	  14.291	 194.935
 3250	  8.7600	 11.6171	  14.296	 194.995
 3251	  8.7400	 11.6221	  14.301	 195.055
 3252	  8.7400	 11.6271	  14.306	 195.115
 3253	  8.7400	 11.6321	  14.311	 195.175
 3254	  8.7200	 11.6371	  14.316	 195.235
 3255	  8.7200	 11.6421	  14.321	 195.295
 3256	  8.7000	 11.6471	  14.326	 195.355
 3257	  8.7000	 11.6521	  14.331	 195.415
 3258	  8.7000	 11.6571	  14.336	 195.475
 3259	  8.6800	 11.6621	  14.341	 195.535
 3260	  8.6800	 11.6671	  14.346	 195.595
 3261	  8.6600	 11.6721	  14.351	 195.655
 3262	  8.6600	 11.6758	  14.355	 195.715
 3263	  8.6600	 11.6821	  14.361	 195.775
 3264	  8.6600	 11.6858	  14.365	 195.835
 3265	  8.6400	 11.6921	  14.371	 195.895
 3266	  8.6400	 11.6958	  14.375	 195.955
 3267	  8.6200	 11.7021	  14.381	 196.015
 3268	  8.6200	 11.7058	  14.385	 196.075
 3269	  8.6000	 11.7121	  14.391	 196.135
 3270	  8.6000	 11.7158	  14.395	 196.195
 3271	  8.6000	 11.7221	  14.401	 196.255
 3272	  8.5800	 11.7258	  14.405	 196.315
 3273	  8.5800	 11.7321	  14.411	 196.375
 3274	  8.5800	 11.7371	  14.416	 196.435
 3275	  8.5600	 11.7421	  14.421	 196.495
 3276	  8.5600	 11.7471	  14.426	 196.555
 3277	  8.5400	 11.7521	  14.431	 196.615
 3278	  8.5400	 11.7571	  14.436	 196.675
 3279	  8.5200	 11.7621	  14.441	 196.735
 3280	  8.5200	 11.7671	  14.446	 196.795
 3281	  8.5200	 11.7721	  14.451	 196.855
 3282	  8.5000	 11.7771	  14.456	 196.915
 3283	  8.5000	 11.7821	  14.461	 196.975
 3284	  8.4800	 11.7871	  14.466	 197.035
 3285	  8.4800	 11.7921	  14.471	 197.095
 3286	  8.4600	 11.7971	  14.476	 197.155
 3287	  8.4600	 11.8021	  14.481	 197.215
 3288	  8.4600	 11.8071	  14.486	 197.275
 3289	  8.4400	 11.8121	  14.491	 197.335
 3290	  8.4400	 11.8171	  14.496	 197.395
 3291	  8.4200	 11.8221	  14.501	 197.455
 3292	  8.4200	 11.8271	  14.506	 197.515
 3293	  8.4000	 11.8321	  14.511	 197.575
 3294	  8.4000	 11.8371	  14.516	 197.635
 3295	  8.3800	 11.8421	  14.521	 197.695
 3296	  8.3800	 11.8471	  14.526	 197.755
 3297	  8.3800	 11.8521	  14.531	 197.815
 3298	  8.3600	 11.8571	  14.536	 197.875
 3299	  8.3600	 11.8621	  14.541	 197.935
 3300	  8.3400	 11.8671	  14.546	 197.995
 3301	  8.3400	 11.8721	  14.551	 198.055
 3302	  8.3200	 11.8771	  14.556	 198.115
 3303	  8.3200	 11.8821	  14.561	 198.175
 3304	  8.3200	 11.8871	  14.566	 198.235
 3305	  8.3000	 11.8921	  14.571	 198.295
 3306	  8.3000	 11.8971	  14.576	 198.355
 3307	  8.2800	 11.9021	  14.581	 198.415
 3308	  8.2800	 11.9071	  14.586	 198.475
 3309	  8.2600	 11.9121	  14.591	 198.535
 3310	  8.2600	 11.9171	  14.596	 198.595
 3311	  8.2400	 11.9221	  14.601	 198.655
 3312	  8.2400	 11.9271	  14.606	 198.715
 3313	  8.2200	 11.9321	  14.611	 198.775
 3314	  8.2200	 11.9371	  14.616	 198.835
 3315	  8.2000	 11.9421	  14.621	 198.895
 3316	  8.2000	 11.9471	  14.626	 198.955
 3317	  8.1800	 11.9521	  14.631	 199.015
 3318	  8.1800	 11.9571	  14.636	 199.075
 3319	  8.1600	 11.9633	  14.642	 199.135
 3320	  8.1400	 11.9671	  14.646	 199.195
 3321	  8.1400	 11.9733	  14.652	 199.255
 3322	  8.1200	 11.9783	  14.657	 199.315
 3323	  8.1200	 11.9833	  14.662	 199.375
 3324	  8.1000	 11.9883	  14.667	 199.435
 3325	  8.0800	 11.9933	  14.672	 199.495
 3326	  8.0800	 11.9983	  14.677	 199.555
 3327	  8.0600	 12.0033	  14.682	 199.615
 3328	  8.0600	 12.0083	  14.688	 199.675
 3329	  8.0200	 12.0133	  14.693	 199.735
 3330	  8.0200	 12.0183	  14.697	 199.795
 3331	  8.0000	 12.0233	  14.702	 199.855
 3332	  7.9600	 12.0283	  14.707	 199.915
 3333	  7.9400	 12.0333	  14.712	 199.975
 3334	  7.9000	 12.0383	  14.717	 200.035
 3335	  7.8800	 12.0433	  14.722	 200.095
 3336	  7.3400	 12.0521	  14.731	 200.155
 3337	  0.2400	 12.0558	  14.735	 200.215
 3338	  0.0400	 12.0608	  14.740	 200.275
 3339	  0.0400	 12.0658	  14.745	 200.335
 3340	  0.0400	 12.0708	  14.750	 200.395
 3341	  0.0400	 12.0758	  14.755	 200.455
 3342	  0.0400	 12.0808	  14.760	 200.515
 3343	  0.0400	 12.0858	  14.765	 200.575
 3344	  0.0400	 12.0908	  14.770	 200.635
 3345	  0.0400	 12.0958	  14.775	 200.695
 3346	  0.0400	 12.1008	  14.780	 200.755
 3347	  0.0400	 12.1058	  14.785	 200.815
 3348	  0.0400	 12.1108	  14.790	 200.875
 3349	  0.0400	 12.1158	  14.795	 200.935
 3350	  0.0400	 12.1208	  14.800	 200.995
 3351	  0.0400	 12.1258	  14.805	 201.055
 3352	  0.0400	 12.1308	  14.810	 201.115
 3353	  0.0400	 12.1358	  14.815	 201.175
 3354	  0.0400	 12.1408	  14.820	 201.235
 3355	  0.0400	 12.1458	  14.825	 201.295
 3356	  0.0400	 12.1508	  14.830	 201.355
 3357	  0.0400	 12.1558	  14.835	 201.415
 3358	  0.0400	 12.1621	  14.841	 201.475
 3359	  0.0400	 12.1658	  14.845	 201.535
 3360	  0.0400	 12.1721	  14.851	 201.595
 3361	  0.0400	 12.1758	  14.855	 201.655
 3362	  0.0400	 12.1821	  14.861	 201.715
 3363	  0.0400	 12.1858	  14.865	 201.775
 3364	  0.0400	 12.1921	  14.871	 201.835
 3365	  0.0400	 12.1971	  14.876	 201.895
 3366	  0.0400	 12.2021	  14.881	 201.955
 3367	  0.0400	 12.2071	  14.886	 202.015
 3368	  0.0400	 12.2121	  14.891	 202.075
 3369	  0.0400	 12.2171	  14.896	 202.135
 3370	  0.0400	 12.2221	  14.901	 202.195
 3371	  0.0400	 12.2271	  14.906	 202.255
 3372	  0.0400	 12.2321	  14.911	 202.315
 3373	  0.0400	 12.2371	  14.916	 202.375
 3374	  0.0400	 12.2421	  14.921	 202.435
 3375	  0.0400	 12.2471	  14.926	 202.495
 3376	  0.0400	 12.2521	  14.931	 202.555
 3377	  0.0400	 12.2571	  14.936	 202.615
 3378	  0.0400	 12.2621	  14.941	 202.675
 3379	  0.0400	 12.2671	  14.946	 202.735
 3380	  0.0400	 12.2721	  14.951	 202.795
 3381	  0.0400	 12.2771	  14.956	 202.855
 3382	  0.0400	 12.2821	  14.961	 202.915
 3383	  0.0400	 12.2871	  14.966	 202.975
 3384	  0.0400	 12.2921	  14.971	 203.035
 3385	  0.0400	 12.2971	  14.976	 203.095
 3386	  0.0400	 12.3021	  14.981	 203.155
 3387	  0.0400	 12.3071	  14.986	 203.215
 3388	  0.0400	 12.3121	  14.991	 203.275
 3389	  0.0400	 12.3171	  14.996	 203.335
 3390	  0.0400	 12.3221	  15.001	 203.395
 3391	  0.0400	 12.3271	  15.006	 203.455
 3392	  0.0400	 12.3321	  15.011	 203.515
 3393	  0.0400	 12.3371	  15.016	 203.575
 3394	  0.0400	 12.3421	  15.021	 203.635
ControlMode:	0
Rate:	  5.0000
(null)
4
step	1
0
5.000000
0.000000
1
1
0.500000
2
step	2
1
5.000000
0.000000
1
1
2.000000
3
step	3
5
2.000000
0.000000
1
0
30.000000
4
step	4
8
0.000000
0.000000
0
0
0.000000
0
2
